File: data-raw/raw_biomass/CL.csv
#EXPORTTYPE:                 ,DATA SINGLE
#FILE:                       ,CL.ngb-st9
#FORMAT:                     ,NETZSCH5
#FTYPE:                      ,ANSI
#IDENTITY:                   ,Saras
#DECIMAL:                    ,POINT
#SEPARATOR:                  ,COMMA
#MTYPE:                      ,TG
#INSTRUMENT:                 ,NETZSCH TG 209F1 Libra
#PROJECT:                    ,IL
#DATE/TIME:                  ,30/05/2017 2:08:57 PM (UTC+10)
#CORR. FILE:                 ,
#TEMPCAL:                    ,TCALZERO.TCX
#LABORATORY:                 ,Mulvaney
#OPERATOR:                   ,JGC
#REMARK:                     ,Training run
#SAMPLE:                     ,cellulose
#SAMPLE MASS /mg:            ,17.1559
#MATERIAL:                   ,CZTSE
#TYPE OF CRUCIBLE:           ,Al2O3
#SAMPLE CRUCIBLE MASS /mg:   ,312.1469
#REFERENCE CRUCIBLE MASS /mg:,
#M.RANGE /mg:                ,2000
#CORR. CODE:                 ,090
#RANGE:                      ,32°C/10.0(K/min)/800°C
#SEGMENT:                    ,S1/1
#SEG. 1:                     ,32°C/10.0(K/min)/800°C

##Temp./°C,Time/min,Mass loss/mg
 31.59700, 0.00000,-1.717149e-003
 34.19700, 0.44195,-1.090499e-002
 36.79700, 0.68419,-2.023572e-002
 39.39700, 0.89503,-3.573104e-002
 41.99700, 1.09973,-5.225835e-002
 44.59700, 1.31083,-7.410767e-002
 47.19700, 1.53722,      -0.10115
 49.79700, 1.78343,      -0.13762
 52.39700, 2.04711,      -0.18124
 54.99700, 2.31909,      -0.23273
 57.59700, 2.59014,      -0.28966
 60.19700, 2.85602,      -0.35170
 62.79700, 3.11716,      -0.41857
 65.39700, 3.37480,      -0.50365
 67.99700, 3.63204,      -0.57242
 70.59700, 3.88940,      -0.65429
 73.19700, 4.14757,      -0.74483
 75.79700, 4.40573,      -0.82692
 78.39700, 4.66462,      -0.90549
 80.99700, 4.92371,      -0.98700
 83.59700, 5.18298,      -1.07005
 86.19700, 5.44167,      -1.14362
 88.79700, 5.70108,      -1.21622
 91.39700, 5.96030,      -1.28759
 93.99700, 6.21927,      -1.35235
 96.59700, 6.47838,      -1.41419
 99.19700, 6.73909,      -1.47068
101.797, 7.00006,      -1.52465
104.397, 7.25926,      -1.57272
106.997, 7.51911,      -1.61912
109.597, 7.77948,      -1.66245
112.197, 8.03974,      -1.70018
114.797, 8.30026,      -1.73839
117.397, 8.56053,      -1.77260
119.997, 8.82123,      -1.80412
122.597, 9.08113,      -1.83297
125.197, 9.34171,      -1.86390
127.797, 9.60196,      -1.88894
130.397, 9.86194,      -1.91575
132.997,10.12200,      -1.93915
135.597,10.38149,      -1.96037
138.197,10.64101,      -1.98038
140.797,10.90117,      -2.00057
143.397,11.16085,      -2.01741
145.997,11.42065,      -2.03298
148.597,11.68059,      -2.04748
151.197,11.94059,      -2.06141
153.797,12.20084,      -2.07421
156.397,12.46100,      -2.08561
158.997,12.72140,      -2.09605
161.597,12.98173,      -2.10308
164.197,13.24132,      -2.11067
166.797,13.50115,      -2.11746
169.397,13.76143,      -2.12616
171.997,14.02167,      -2.13170
174.597,14.28162,      -2.13673
177.197,14.54155,      -2.14237
179.797,14.80095,      -2.14561
182.397,15.06142,      -2.15145
184.997,15.32157,      -2.15560
187.597,15.58155,      -2.15945
190.197,15.84139,      -2.16210
192.797,16.10198,      -2.16661
195.397,16.36180,      -2.17151
197.997,16.62136,      -2.17419
200.597,16.88178,      -2.18094
203.197,17.14178,      -2.18727
205.797,17.40171,      -2.19260
208.397,17.66139,      -2.19764
210.997,17.92110,      -2.20488
213.597,18.18111,      -2.21240
216.197,18.44167,      -2.22496
218.797,18.70198,      -2.23581
221.397,18.96175,      -2.24757
223.997,19.22143,      -2.26331
226.597,19.48131,      -2.27814
229.197,19.74081,      -2.29782
231.797,20.00095,      -2.32155
234.397,20.26127,      -2.34940
236.997,20.52106,      -2.38137
239.597,20.77740,      -2.42066
242.197,21.03414,      -2.46620
244.797,21.29992,      -2.52413
247.397,21.56169,      -2.60053
249.997,21.82125,      -2.69593
252.597,22.08012,      -2.80179
255.197,22.33907,      -2.92991
257.797,22.59789,      -3.08637
260.397,22.85663,      -3.27379
262.997,23.11551,      -3.50520
265.597,23.37465,      -3.77930
268.197,23.63379,      -4.11097
270.797,23.89172,      -4.48962
273.397,24.15087,      -4.93283
275.997,24.41115,      -5.40612
278.597,24.67386,      -5.90280
281.197,24.93758,      -6.37740
283.797,25.20143,      -6.82207
286.397,25.46392,      -7.23010
288.997,25.72350,      -7.61733
291.597,25.98201,      -8.03332
294.197,26.24441,      -8.43693
296.797,26.51666,      -8.66118
299.397,26.78241,      -8.76829
301.997,27.04070,      -8.82616
304.597,27.29583,      -8.87528
307.197,27.55131,      -8.91355
309.797,27.80851,      -8.94659
312.397,28.06678,      -8.97218
314.997,28.32628,      -8.99554
317.597,28.58646,      -9.01926
320.197,28.84654,      -9.04057
322.797,29.10649,      -9.06097
325.397,29.36607,      -9.08231
327.997,29.62591,      -9.10614
330.597,29.88598,      -9.12773
333.197,30.14549,      -9.14840
335.797,30.40535,      -9.17197
338.397,30.66586,      -9.19473
340.997,30.92565,      -9.21847
343.597,31.18574,      -9.24263
346.197,31.44556,      -9.26682
348.797,31.70520,      -9.29048
351.397,31.96514,      -9.31606
353.997,32.22545,      -9.34302
356.597,32.48537,      -9.36660
359.197,32.74509,      -9.39027
361.797,33.00541,      -9.41629
364.397,33.26557,      -9.44129
366.997,33.52613,      -9.46607
369.597,33.78595,      -9.49109
372.197,34.04649,      -9.51705
374.797,34.30693,      -9.54135
377.397,34.56710,      -9.56979
379.997,34.82733,      -9.59642
382.597,35.08727,      -9.62141
385.197,35.34743,      -9.64790
387.797,35.60793,      -9.67589
390.397,35.86810,      -9.69991
392.997,36.12871,      -9.72767
395.597,36.38909,      -9.75457
398.197,36.64896,      -9.77876
400.797,36.90959,      -9.80588
403.397,37.17026,      -9.83450
405.997,37.42996,      -9.85574
408.597,37.69123,      -9.88815
411.197,37.95101,      -9.90851
413.797,38.21116,      -9.93473
416.397,38.47207,      -9.96066
418.997,38.73246,      -9.98381
421.597,38.99277,     -10.00672
424.197,39.25351,     -10.03025
426.797,39.51520,     -10.05511
429.397,39.77713,     -10.07405
431.997,40.03896,     -10.09874
434.597,40.29770,     -10.11706
437.197,40.55591,     -10.13453
439.797,40.81475,     -10.15644
442.397,41.07378,     -10.17247
444.997,41.33374,     -10.19401
447.597,41.59344,     -10.21253
450.197,41.85354,     -10.23407
452.797,42.11335,     -10.25130
455.397,42.37323,     -10.26693
457.997,42.63423,     -10.29488
460.597,42.89317,     -10.30568
463.197,43.15346,     -10.33044
465.797,43.41341,     -10.34954
468.397,43.67331,     -10.36596
470.997,43.93333,     -10.38428
473.597,44.19302,     -10.39973
476.197,44.45365,     -10.41740
478.797,44.71435,     -10.43897
481.397,44.97409,     -10.44440
483.997,45.23525,     -10.46455
486.597,45.49549,     -10.48001
489.197,45.75497,     -10.48810
491.797,46.01500,     -10.50159
494.397,46.27529,     -10.51457
496.997,46.53504,     -10.52046
499.597,46.79579,     -10.53535
502.197,47.05503,     -10.54002
504.797,47.31500,     -10.55140
507.397,47.57501,     -10.55678
509.997,47.83565,     -10.56989
512.597,48.09576,     -10.57721
515.197,48.35594,     -10.58408
517.797,48.61542,     -10.59010
520.397,48.87528,     -10.59423
522.997,49.13565,     -10.60548
525.597,49.39515,     -10.60945
528.197,49.65501,     -10.60990
530.797,49.91523,     -10.61857
533.397,50.17581,     -10.62850
535.997,50.43558,     -10.63085
538.597,50.69553,     -10.63373
541.197,50.95516,     -10.63844
543.797,51.21567,     -10.64129
546.397,51.47556,     -10.64332
548.997,51.73692,     -10.65117
551.597,51.99603,     -10.65358
554.197,52.25670,     -10.66142
556.797,52.51617,     -10.66054
559.397,52.77611,     -10.66286
561.997,53.03718,     -10.66608
564.597,53.29781,     -10.66951
567.197,53.55810,     -10.67260
569.797,53.81836,     -10.67391
572.397,54.07902,     -10.68151
574.997,54.33825,     -10.67881
577.597,54.59909,     -10.68510
580.197,54.85806,     -10.68619
582.797,55.11806,     -10.68737
585.397,55.37859,     -10.69277
587.997,55.63848,     -10.69573
590.597,55.89842,     -10.69900
593.197,56.15752,     -10.70047
595.797,56.41649,     -10.70233
598.397,56.67674,     -10.70529
600.997,56.93733,     -10.70784
603.597,57.19697,     -10.71230
606.197,57.45663,     -10.71464
608.797,57.71646,     -10.71648
611.397,57.97704,     -10.72042
613.997,58.23760,     -10.72615
616.597,58.49782,     -10.72982
619.197,58.75791,     -10.73223
621.797,59.01859,     -10.73615
624.397,59.27879,     -10.74303
626.997,59.53869,     -10.74443
629.597,59.79980,     -10.75314
632.197,60.05994,     -10.76235
634.797,60.32005,     -10.76325
637.397,60.58040,     -10.77645
639.997,60.83992,     -10.77994
642.597,61.09978,     -10.78224
645.197,61.35955,     -10.78622
647.797,61.62129,     -10.79729
650.397,61.88221,     -10.80778
652.997,62.14271,     -10.81825
655.597,62.40349,     -10.83085
658.197,62.66379,     -10.83731
660.797,62.92440,     -10.85269
663.397,63.18508,     -10.86275
665.997,63.44580,     -10.87888
668.597,63.70509,     -10.89266
671.197,63.96556,     -10.91061
673.797,64.22509,     -10.92518
676.397,64.48548,     -10.93848
678.997,64.74591,     -10.95779
681.597,65.00597,     -10.97521
684.197,65.26621,     -10.99335
686.797,65.52648,     -11.01110
689.397,65.78658,     -11.03145
691.997,66.04673,     -11.05300
694.597,66.30658,     -11.07093
697.197,66.56646,     -11.08906
699.797,66.82639,     -11.10828
702.397,67.08783,     -11.12849
704.997,67.34847,     -11.15470
707.597,67.60809,     -11.16779
710.197,67.86927,     -11.19332
712.797,68.12869,     -11.21565
715.397,68.38807,     -11.23699
717.997,68.64718,     -11.25314
720.597,68.90767,     -11.27659
723.197,69.16723,     -11.29929
725.797,69.42884,     -11.32020
728.397,69.68719,     -11.33971
730.997,69.94799,     -11.36505
733.597,70.20747,     -11.38286
736.197,70.46793,     -11.40574
738.797,70.72898,     -11.43432
741.397,70.98751,     -11.44151
743.997,71.24867,     -11.47248
746.597,71.50828,     -11.49463
749.197,71.76902,     -11.51660
751.797,72.02912,     -11.54048
754.397,72.28964,     -11.56441
756.997,72.54972,     -11.58420
759.597,72.80975,     -11.60768
762.197,73.06994,     -11.62988
764.797,73.33102,     -11.65303
767.397,73.59106,     -11.67720
769.997,73.85160,     -11.70030
772.597,74.11157,     -11.72146
775.197,74.37170,     -11.74033
777.797,74.63136,     -11.76045
780.397,74.89157,     -11.77991
782.997,75.15185,     -11.80086
785.597,75.41188,     -11.81370
788.197,75.67190,     -11.83054
790.797,75.93142,     -11.84992
793.397,76.19112,     -11.87025
795.997,76.45065,     -11.88435
798.597,76.70970,     -11.89830
799.397,76.78946,     -11.90311