File: data-raw/raw_biomass/HC.csv
#EXPORTTYPE:                 ,DATA SINGLE
#FILE:                       ,HC.ngb-st9
#FORMAT:                     ,NETZSCH5
#FTYPE:                      ,ANSI
#IDENTITY:                   ,Saras
#DECIMAL:                    ,POINT
#SEPARATOR:                  ,COMMA
#MTYPE:                      ,TG
#INSTRUMENT:                 ,NETZSCH TG 209F1 Libra
#PROJECT:                    ,PM
#DATE/TIME:                  ,15/01/2018 12:26:33 PM (UTC+11)
#CORR. FILE:                 ,
#TEMPCAL:                    ,TCALZERO.TCX
#LABORATORY:                 ,Capture Lab
#OPERATOR:                   ,Frank
#REMARK:                     ,
#SAMPLE:                     ,HC
#SAMPLE MASS /mg:            ,15.4650
#MATERIAL:                   ,zeolite
#TYPE OF CRUCIBLE:           ,Al2O3
#SAMPLE CRUCIBLE MASS /mg:   ,169.3205
#REFERENCE CRUCIBLE MASS /mg:,
#M.RANGE /mg:                ,2000
#CORR. CODE:                 ,090
#RANGE:                      ,32°C/10.0(K/min)/900°C
#SEGMENT:                    ,S1/1
#SEG. 1:                     ,32°C/10.0(K/min)/900°C

##Temp./°C,Time/min,Mass loss/mg
 31.53500, 0.00000,-1.657481e-003
 34.43500, 0.46207,-4.872035e-003
 37.33500, 0.73236,-6.082292e-003
 40.23500, 0.97017,-7.569576e-003
 43.13500, 1.20391,-9.401151e-003
 46.03500, 1.44752,-1.274493e-002
 48.93500, 1.70895,-1.770682e-002
 51.83500, 1.98970,-2.731645e-002
 54.73500, 2.28459,-3.575559e-002
 57.63500, 2.58460,-4.866509e-002
 60.53500, 2.88376,-6.215758e-002
 63.43500, 3.17861,-7.779012e-002
 66.33500, 3.46879,-9.557394e-002
 69.23500, 3.75647,      -0.11788
 72.13500, 4.04441,      -0.14415
 75.03500, 4.33361,      -0.17736
 77.93500, 4.62324,      -0.21344
 80.83500, 4.91128,      -0.25588
 83.73500, 5.19833,      -0.29950
 86.63500, 5.48451,      -0.34173
 89.53500, 5.77155,      -0.38343
 92.43500, 6.06010,      -0.41935
 95.33500, 6.34945,      -0.45248
 98.23500, 6.63940,      -0.48221
101.135, 6.92971,      -0.50761
104.035, 7.22068,      -0.52916
106.935, 7.51126,      -0.54854
109.835, 7.80196,      -0.56356
112.735, 8.09270,      -0.58005
115.635, 8.38357,      -0.59633
118.535, 8.67461,      -0.61597
121.435, 8.96538,      -0.64167
124.335, 9.25570,      -0.67318
127.235, 9.54569,      -0.70933
130.135, 9.83559,      -0.75459
133.035,10.12502,      -0.80475
135.935,10.41415,      -0.85490
138.835,10.70252,      -0.90357
141.735,10.99136,      -0.94679
144.635,11.28012,      -0.98188
147.535,11.56923,      -1.01036
150.435,11.85860,      -1.02824
153.335,12.14794,      -1.04040
156.235,12.44045,      -1.05381
159.135,12.73277,      -1.07067
162.035,13.02529,      -1.09262
164.935,13.31681,      -1.12332
167.835,13.60651,      -1.16387
170.735,13.89401,      -1.21582
173.635,14.18028,      -1.29459
176.535,14.46681,      -1.39704
179.435,14.75508,      -1.51179
182.335,15.04432,      -1.64050
185.235,15.33369,      -1.78197
188.135,15.62326,      -1.93465
191.035,15.91392,      -2.09795
193.935,16.20459,      -2.26906
196.835,16.49542,      -2.43871
199.735,16.78557,      -2.60612
202.635,17.07605,      -2.76577
205.535,17.36664,      -2.91811
208.435,17.65716,      -3.05754
211.335,17.94809,      -3.18948
214.235,18.23924,      -3.31678
217.135,18.52969,      -3.44195
220.035,18.82027,      -3.56535
222.935,19.11063,      -3.69176
225.835,19.40082,      -3.81767
228.735,19.69057,      -3.94282
231.635,19.98079,      -4.07140
234.535,20.27084,      -4.20355
237.435,20.56071,      -4.33307
240.335,20.85059,      -4.46124
243.235,21.14045,      -4.58708
246.135,21.43025,      -4.71329
249.035,21.72026,      -4.83744
251.935,22.01028,      -4.95687
254.835,22.30055,      -5.07575
257.735,22.59070,      -5.19027
260.635,22.88028,      -5.30705
263.535,23.17032,      -5.41832
266.435,23.46029,      -5.53242
269.335,23.75001,      -5.63966
272.235,24.04042,      -5.74664
275.135,24.32992,      -5.85706
278.035,24.62056,      -5.96733
280.935,24.91082,      -6.07454
283.835,25.20071,      -6.18772
286.735,25.49050,      -6.30444
289.635,25.78055,      -6.42611
292.535,26.07100,      -6.54843
295.435,26.36131,      -6.69535
298.335,26.65150,      -6.82496
301.235,26.94134,      -6.99300
304.135,27.23068,      -7.14097
307.035,27.52097,      -7.30357
309.935,27.81192,      -8.38099
312.835,28.10317,      -2.64540
315.735,28.39331,       7.20542
318.635,28.68271,      17.22361
321.535,28.97262,      19.93001
324.435,29.26216,      36.03850
327.335,29.55262,      45.54079
330.235,29.84359,      54.78652
333.135,30.13277,      61.87408
336.035,30.42258,      72.20290
338.935,30.71285,      72.27796
341.835,31.00313,      75.84542
344.735,31.29368,      78.08534
347.635,31.58427,      94.11242
350.535,31.87398,      95.81987
353.435,32.16427,     112.618
356.335,32.45488,     122.434
359.235,32.74518,     128.959
362.135,33.03518,     132.427
365.035,33.32629,     114.476
367.935,33.61518,       5.77133
370.835,33.90413,      -3.47330
373.735,34.19428,      15.34261
376.635,34.48502,      47.40519
379.535,34.77587,      74.50003
382.435,35.06616,      94.27632
385.335,35.35704,     107.549
388.235,35.64774,      51.08051
391.135,35.93851,      56.40618
394.035,36.22947,      23.06151
396.935,36.52029,     -14.38539
399.835,36.81060,     -16.47505
402.735,37.10114,     -17.16244
405.635,37.39159,      -9.84650
408.535,37.68155,     -31.89038
411.435,37.97008,     -64.30164
414.335,38.25844,    -108.56
417.235,38.54909,    -152.895
420.135,38.83859,    -191.466
423.035,39.12883,    -225.714
425.935,39.41974,    -278.455
428.835,39.71027,    -335.118
431.735,40.00388,    -142.74
434.635,40.29494,    -152.561
437.535,40.58367,    -152.672
440.435,40.87362,    -149.06
443.335,41.16570,    -160.183
446.235,41.45249,    -167.607
449.135,41.74414,    -172.475
452.035,42.03438,    -179.368
454.935,42.32488,    -184.005
457.835,42.61549,    -182.865
460.735,42.90414,    -184.056
463.635,43.19302,    -151.459
466.535,43.48351,    -161.058
469.435,43.77324,    -160.601
472.335,44.06063,    -172.351
475.235,44.34997,    -182.279
478.135,44.63932,    -181.218
481.035,44.92877,    -184.462
483.935,45.22070,    -184.208
486.835,45.51904,    -182.592
489.735,45.81084,    -182.011
492.635,46.10095,    -179.057
495.535,46.38937,    -172.879
498.435,46.67778,    -176.457
501.335,46.96751,    -208.18
504.235,47.25684,    -207.686
507.135,47.54552,    -201.851
510.035,47.83480,    -199.582
512.935,48.12396,    -182.808
515.835,48.41354,    -178.904
518.735,48.70316,    -174.933
521.635,48.99389,    -173.921
524.535,49.28570,    -157.373
527.435,49.57699,    -143.471
530.335,49.86765,    -131.574
533.235,50.15805,    -121.848
536.135,50.44882,    -112.62
539.035,50.73913,    -101.468
541.935,51.02832,     -94.83950
544.835,51.31883,     -91.22320
547.735,51.60862,     -87.99678
550.635,51.89870,     -79.34483
553.535,52.18828,     -72.59302
556.435,52.47874,     -69.55841
559.335,52.76876,     -69.03990
562.235,53.05922,     -67.68335
565.135,53.34895,     -68.29509
568.035,53.63855,     -63.35531
570.935,53.92825,     -55.92492
573.835,54.21838,     -56.54501
576.735,54.50891,     -57.24042
579.635,54.79949,     -58.45226
582.535,55.08910,     -52.39987
585.435,55.37877,     -52.72911
588.335,55.66851,     -52.96025
591.235,55.95953,     -54.77138
594.135,56.24885,     -55.67002
597.035,56.53839,     -57.40665
599.935,56.82897,     -59.51531
602.835,57.11869,     -60.53743
605.735,57.40894,     -56.03062
608.635,57.69978,     -54.07128
611.535,57.99020,     -52.36641
614.435,58.28099,     -50.87228
617.335,58.57160,     -50.20502
620.235,58.86116,     -51.47040
623.135,59.15156,     -52.61127
626.035,59.44143,     -53.79625
628.935,59.73165,     -55.94117
631.835,60.02163,     -57.08904
634.735,60.31204,     -59.00109
637.635,60.60195,     -59.92905
640.535,60.89188,     -61.70579
643.435,61.18150,     -63.53257
646.335,61.47231,     -62.82849
649.235,61.76241,     -63.30772
652.135,62.05275,     -65.70505
655.035,62.34297,     -65.91577
657.935,62.63346,     -68.59996
660.835,62.92360,     -67.57088
663.735,63.21402,     -66.13373
666.635,63.50392,     -67.70088
669.535,63.79407,     -64.85461
672.435,64.08478,     -63.87203
675.335,64.37492,     -61.61488
678.235,64.66544,     -57.71961
681.135,64.95573,     -54.90079
684.035,65.24640,     -50.08485
686.935,65.53730,     -42.92865
689.835,65.82735,     -35.63276
692.735,66.11799,     -32.60504
695.635,66.40823,     -29.23336
698.535,66.69966,     -28.98350
701.435,66.99030,     -25.28062
704.335,67.28103,     -24.98794
707.235,67.57202,     -24.37552
710.135,67.86215,     -22.24132
713.035,68.15266,     -16.08255
715.935,68.44251,     -17.75063
718.835,68.73303,     -16.93179
721.735,69.02283,     -18.45104
724.635,69.31260,     -19.15198
727.535,69.60287,     -18.35548
730.435,69.89274,     -15.30953
733.335,70.18246,     -15.47520
736.235,70.47201,     -16.16817
739.135,70.76168,     -15.28951
742.035,71.05111,     -15.29023
744.935,71.33997,     -15.29414
747.835,71.62961,     -15.29836
750.735,71.91878,     -15.30367
753.635,72.20774,     -15.30946
756.535,72.49706,     -15.31406
759.435,72.78629,     -15.31774
762.335,73.05563,     -15.32313
765.235,73.34310,     -15.32505
768.135,73.63187,     -15.32710
771.035,73.92844,     -15.33259
773.935,74.21958,     -15.33584
776.835,74.51049,     -15.33889
779.735,74.80002,     -15.34234
782.635,75.08894,     -15.34397
785.535,75.37744,     -15.34541
788.435,75.66612,     -15.34993
791.335,75.95574,     -15.34985
794.235,76.24436,     -15.49406
797.135,76.52963,     -15.07860
800.035,76.81663,     -14.78865
802.935,77.10881,     -14.94522
805.835,77.40444,     -14.84769
808.735,77.70058,     -14.77952
811.635,77.99307,     -14.93588
814.535,78.28635,     -15.52235
817.435,78.58033,     -14.93258
820.335,78.87365,     -14.90878
823.235,79.16504,     -15.10318
826.135,79.45739,     -14.90405
829.035,79.75082,     -16.72642
831.935,80.04308,     -15.13513
834.835,80.33339,     -14.85304
837.735,80.62495,     -15.39481
840.635,80.91590,     -15.28147
843.535,81.20622,     -15.54365
846.435,81.49760,     -15.38944
849.335,81.78844,     -15.39091
852.235,82.08053,     -15.39580
855.135,82.37015,     -15.39983
858.035,82.65824,     -15.40117
860.935,82.94774,     -15.40454
863.835,83.23949,     -15.40787
866.735,83.53145,     -15.40993
869.635,83.82409,     -15.41057
872.535,84.11694,     -15.41373
875.435,84.40862,     -15.41695
878.335,84.70103,     -15.41780
881.235,84.99307,     -15.41834
884.135,85.28449,     -15.41868
887.035,85.57495,     -15.42191
889.935,85.86613,     -15.41925
892.835,86.15658,     -15.42059
895.735,86.44661,     -15.42103
898.635,86.73578,     -15.41787
899.235,86.79590,     -15.41813