File: data-raw/raw_biomass/LG.csv
#EXPORTTYPE:                 ,DATA SINGLE
#FILE:                       ,LG2.ngb-st9
#FORMAT:                     ,NETZSCH5
#FTYPE:                      ,ANSI
#IDENTITY:                   ,Saras
#DECIMAL:                    ,POINT
#SEPARATOR:                  ,COMMA
#MTYPE:                      ,TG
#INSTRUMENT:                 ,NETZSCH TG 209F1 Libra
#PROJECT:                    ,PM
#DATE/TIME:                  ,17/01/2018 9:46:31 AM (UTC+11)
#CORR. FILE:                 ,
#TEMPCAL:                    ,TCALZERO.TCX
#LABORATORY:                 ,Capture Lab
#OPERATOR:                   ,Frank
#REMARK:                     ,
#SAMPLE:                     ,LG2
#SAMPLE MASS /mg:            ,18.4170
#MATERIAL:                   ,zeolite
#TYPE OF CRUCIBLE:           ,Al2O3
#SAMPLE CRUCIBLE MASS /mg:   ,164.3530
#REFERENCE CRUCIBLE MASS /mg:,
#M.RANGE /mg:                ,2000
#CORR. CODE:                 ,090
#RANGE:                      ,32°C/10.0(K/min)/900°C
#SEGMENT:                    ,S1/1
#SEG. 1:                     ,32°C/10.0(K/min)/900°C

##Temp./°C,Time/min,Mass loss/mg
 32.04800, 0.00000,-1.699158e-003
 34.94800, 0.48555,-4.460231e-003
 37.84800, 0.76979,-5.339396e-003
 40.74800, 1.01600,-6.170796e-003
 43.64800, 1.25538,-7.401979e-003
 46.54800, 1.50232,-9.033984e-003
 49.44800, 1.76509,-1.222291e-002
 52.34800, 2.04472,-1.793902e-002
 55.24800, 2.33725,-2.510504e-002
 58.14800, 2.63501,-3.476936e-002
 61.04800, 2.93169,-4.549590e-002
 63.94800, 3.22492,-5.653977e-002
 66.84800, 3.51542,-7.085273e-002
 69.74800, 3.80436,-8.527112e-002
 72.64800, 4.09264,      -0.10048
 75.54800, 4.38105,      -0.11685
 78.44800, 4.67015,      -0.13314
 81.34800, 4.96029,      -0.14915
 84.24800, 5.24865,      -0.16397
 87.14800, 5.53683,      -0.17733
 90.04800, 5.82580,      -0.18967
 92.94800, 6.11592,      -0.19873
 95.84800, 6.40607,      -0.20837
 98.74800, 6.69574,      -0.21534
101.648, 6.98521,      -0.22277
104.548, 7.27517,      -0.22950
107.448, 7.56549,      -0.23554
110.348, 7.85614,      -0.24117
113.248, 8.14639,      -0.24712
116.148, 8.43680,      -0.25362
119.048, 8.72686,      -0.26049
121.948, 9.01702,      -0.26855
124.848, 9.30678,      -0.27734
127.748, 9.59670,      -0.28751
130.648, 9.88680,      -0.29805
133.548,10.17666,      -0.30908
136.448,10.46635,      -0.32058
139.348,10.75588,      -0.33264
142.248,11.04587,      -0.34683
145.148,11.33523,      -0.36231
148.048,11.62539,      -0.37846
150.948,11.91495,      -0.39455
153.848,12.20442,      -0.41100
156.748,12.49374,      -0.42817
159.648,12.78371,      -0.44559
162.548,13.07380,      -0.46167
165.448,13.36390,      -0.47876
168.348,13.65406,      -0.49576
171.248,13.94402,      -0.51278
174.148,14.23401,      -0.52950
177.048,14.52391,      -0.54660
179.948,14.81384,      -0.56457
182.848,15.10393,      -0.58195
185.748,15.39411,      -0.60119
188.648,15.68402,      -0.61977
191.548,15.97371,      -0.64092
194.448,16.26341,      -0.66152
197.348,16.55384,      -0.68453
200.248,16.84363,      -0.70720
203.148,17.13352,      -0.73239
206.048,17.42365,      -0.75769
208.948,17.71310,      -0.78407
211.848,18.00341,      -0.81129
214.748,18.29308,      -0.83927
217.648,18.58320,      -0.86861
220.548,18.87291,      -0.89822
223.448,19.16242,      -0.92834
226.348,19.45261,      -0.95906
229.248,19.74271,      -0.99052
232.148,20.03306,      -1.02259
235.048,20.32342,      -1.05608
237.948,20.61367,      -1.08989
240.848,20.90346,      -1.12635
243.748,21.19381,      -1.16350
246.648,21.48364,      -1.20256
249.548,21.77400,      -1.24442
252.448,22.06395,      -1.28596
255.348,22.35410,      -1.33022
258.248,22.64392,      -1.37518
261.148,22.93393,      -1.42316
264.048,23.22421,      -1.47208
266.948,23.51456,      -1.52288
269.848,23.80474,      -1.57398
272.748,24.09396,      -1.62777
275.648,24.38387,      -1.68220
278.548,24.67450,      -1.73888
281.448,24.96444,      -1.79691
284.348,25.25469,      -1.85652
287.248,25.54486,      -1.91782
290.148,25.83498,      -1.98072
293.048,26.12527,      -2.04683
295.948,26.41495,      -2.11307
298.848,26.70511,      -2.18267
301.748,26.99529,      -2.25566
304.648,27.28486,      -2.33344
307.548,27.57505,      -2.41862
310.448,27.86487,      -2.49628
313.348,28.15497,      -2.57606
316.248,28.44497,      -2.66641
319.148,28.73517,      -2.76343
322.048,29.02517,      -2.86150
324.948,29.31499,      -2.96012
327.848,29.60525,      -3.06342
330.748,29.89579,      -3.17186
333.648,30.18567,      -3.28504
336.548,30.47596,      -3.40259
339.448,30.76568,      -3.52489
342.348,31.05616,      -3.65129
345.248,31.34611,      -3.78366
348.148,31.63644,      -3.92170
351.048,31.92655,      -4.06435
353.948,32.21640,      -4.21393
356.848,32.50677,      -4.36721
359.748,32.79746,      -4.52549
362.648,33.08716,      -4.68795
365.548,33.37685,      -4.85833
368.448,33.66683,      -5.02940
371.348,33.95713,      -5.20500
374.248,34.24767,      -5.38453
377.148,34.53773,      -5.56501
380.048,34.82771,      -5.74402
382.948,35.11827,      -5.92266
385.848,35.40848,      -6.09648
388.748,35.69797,      -6.26661
391.648,35.99012,      -6.43070
394.548,36.27937,      -6.58188
397.448,36.57122,      -6.72516
400.348,36.86132,      -6.85733
403.248,37.15195,      -6.97827
406.148,37.44200,      -7.08839
409.048,37.73236,      -7.18780
411.948,38.02381,      -7.27301
414.848,38.31416,      -7.35840
417.748,38.60407,      -7.43561
420.648,38.89452,      -7.52399
423.548,39.18404,      -7.59432
426.448,39.47532,      -7.65799
429.348,39.76577,      -7.72473
432.248,40.05637,      -7.78958
435.148,40.34718,      -7.85122
438.048,40.63776,      -7.90984
440.948,40.92745,      -7.96591
443.848,41.21726,      -8.02005
446.748,41.50708,      -8.07193
449.648,41.79673,      -8.12046
452.548,42.08632,      -8.16792
455.448,42.37585,      -8.21351
458.348,42.66621,      -8.25689
461.248,42.95621,      -8.29942
464.148,43.24606,      -8.34023
467.048,43.53624,      -8.38018
469.948,43.82618,      -8.41867
472.848,44.11625,      -8.45663
475.748,44.40612,      -8.49367
478.648,44.69627,      -8.53066
481.548,44.98723,      -8.56644
484.448,45.27780,      -8.60198
487.348,45.56829,      -8.63616
490.248,45.85805,      -8.67084
493.148,46.14781,      -8.70461
496.048,46.43807,      -8.73783
498.948,46.72834,      -8.77138
501.848,47.01862,      -8.80480
504.748,47.30897,      -8.83735
507.648,47.59905,      -8.86960
510.548,47.88916,      -8.90142
513.448,48.17925,      -8.93267
516.348,48.46953,      -8.96379
519.248,48.75953,      -8.99445
522.148,49.05011,      -9.02468
525.048,49.34082,      -9.05538
527.948,49.63102,      -9.08528
530.848,49.92131,      -9.11500
533.748,50.21106,      -9.14352
536.648,50.50136,      -9.17259
539.548,50.79169,      -9.20090
542.448,51.08202,      -9.22925
545.348,51.37258,      -9.25743
548.248,51.66310,      -9.28490
551.148,51.95286,      -9.31192
554.048,52.24341,      -9.34106
556.948,52.53386,      -9.36719
559.848,52.82349,      -9.39488
562.748,53.11391,      -9.42163
565.648,53.40368,      -9.44730
568.548,53.69447,      -9.47372
571.448,53.98509,      -9.49924
574.348,54.27510,      -9.52526
577.248,54.56535,      -9.54940
580.148,54.85574,      -9.57423
583.048,55.14585,      -9.59811
585.948,55.43622,      -9.62173
588.848,55.72623,      -9.64518
591.748,56.01662,      -9.66713
594.648,56.30550,      -9.68879
597.548,56.59505,      -9.70942
600.448,56.88535,      -9.73035
603.348,57.17540,      -9.75048
606.248,57.46567,      -9.76974
609.148,57.75607,      -9.78856
612.048,58.04600,      -9.80693
614.948,58.33645,      -9.82500
617.848,58.62663,      -9.84255
620.748,58.91680,      -9.85960
623.648,59.20713,      -9.87585
626.548,59.49681,      -9.89267
629.448,59.78716,      -9.90789
632.348,60.07749,      -9.92356
635.248,60.36769,      -9.93883
638.148,60.65762,      -9.95302
641.048,60.94764,      -9.96762
643.948,61.23735,      -9.98196
646.848,61.52822,      -9.99626
649.748,61.81762,     -10.01028
652.648,62.10848,     -10.02437
655.548,62.39811,     -10.03864
658.448,62.68876,     -10.05276
661.348,62.97879,     -10.06644
664.248,63.26909,     -10.08035
667.148,63.55896,     -10.09458
670.048,63.84905,     -10.10716
672.948,64.13936,     -10.12268
675.848,64.42975,     -10.13738
678.748,64.71985,     -10.15245
681.648,65.00982,     -10.16890
684.548,65.29972,     -10.18486
687.448,65.58983,     -10.20061
690.348,65.87989,     -10.21767
693.248,66.17041,     -10.23524
696.148,66.46063,     -10.25273
699.048,66.75117,     -10.26978
701.948,67.04123,     -10.28996
704.848,67.33169,     -10.30802
707.748,67.62237,     -10.32826
710.648,67.91286,     -10.34876
713.548,68.20390,     -10.36901
716.448,68.49481,     -10.39018
719.348,68.78501,     -10.41163
722.248,69.07574,     -10.43236
725.148,69.36621,     -10.45410
728.048,69.65693,     -10.47615
730.948,69.94710,     -10.49528
733.848,70.23769,     -10.51709
736.748,70.52845,     -10.53534
739.648,70.81969,     -10.55641
742.548,71.10969,     -10.57366
745.448,71.40086,     -10.59090
748.348,71.69196,     -10.60510
751.248,71.98331,     -10.62121
754.148,72.27417,     -10.63356
757.048,72.56494,     -10.64681
759.948,72.85549,     -10.65769
762.848,73.14625,     -10.66756
765.748,73.43679,     -10.67647
768.648,73.72704,     -10.68403
771.548,74.01707,     -10.69334
774.448,74.30714,     -10.69986
777.348,74.59666,     -10.70672
780.248,74.88661,     -10.71316
783.148,75.17596,     -10.71889
786.048,75.46559,     -10.72526
788.948,75.75437,     -10.73085
791.848,76.04349,     -10.73598
794.748,76.33276,     -10.74105
797.648,76.62173,     -10.74557
800.548,76.91076,     -10.75081
803.448,77.19982,     -10.75574
806.348,77.48928,     -10.75962
809.248,77.77923,     -10.76466
812.148,78.06934,     -10.76888
815.048,78.35899,     -10.77326
817.948,78.64789,     -10.77749
820.848,78.93722,     -10.78252
823.748,79.22728,     -10.78715
826.648,79.51779,     -10.79135
829.548,79.80858,     -10.79546
832.448,80.09925,     -10.80065
835.348,80.39013,     -10.80575
838.248,80.68141,     -10.81143
841.148,80.97166,     -10.81720
844.048,81.26208,     -10.82268
846.948,81.55275,     -10.82793
849.848,81.84432,     -10.83350
852.748,82.13527,     -10.83827
855.648,82.42535,     -10.84354
858.548,82.71511,     -10.84858
861.448,83.00377,     -10.85375
864.348,83.29278,     -10.85806
867.248,83.58179,     -10.86262
870.148,83.87139,     -10.86707
873.048,84.16070,     -10.87135
875.948,84.45023,     -10.87555
878.848,84.73974,     -10.88026
881.748,85.02996,     -10.88423
884.648,85.31944,     -10.88827
887.548,85.60965,     -10.89288
890.448,85.90037,     -10.89645
893.348,86.19027,     -10.90058
896.248,86.48056,     -10.90543
899.148,86.77050,     -10.90978
899.248,86.78056,     -10.90984