File: data-raw/raw_biomass/LG1.csv
#EXPORTTYPE:                 ,DATA COMPARE
#FILE:                       ,LG.ngb-st9
#FORMAT:                     ,NETZSCH5
#FTYPE:                      ,ANSI
#IDENTITY:                   ,Saras
#DECIMAL:                    ,POINT
#SEPARATOR:                  ,COMMA
#MTYPE:                      ,TG
#INSTRUMENT:                 ,NETZSCH TG 209F1 Libra
#PROJECT:                    ,PM
#DATE/TIME:                  ,15/01/2018 10:13:45 AM (UTC+11)
#CORR. FILE:                 ,
#TEMPCAL:                    ,TCALZERO.TCX
#LABORATORY:                 ,Capture Lab
#OPERATOR:                   ,Frank
#REMARK:                     ,
#SAMPLE:                     ,LG
#SAMPLE MASS /mg:            ,17.9379
#MATERIAL:                   ,zeolite
#TYPE OF CRUCIBLE:           ,Al2O3
#SAMPLE CRUCIBLE MASS /mg:   ,167.6485
#REFERENCE CRUCIBLE MASS /mg:,
#M.RANGE /mg:                ,2000
#CORR. CODE:                 ,090
#RANGE:                      ,32°C/10.0(K/min)/900°C
#SEGMENT:                    ,S1/1
#SEG. 1:                     ,32°C/10.0(K/min)/900°C

##Temp./°C,Mass loss/mg
 31.19800,-1.446608e-003
 34.09800,-5.026788e-003
 36.99800,-6.316975e-003
 39.89800,-8.074826e-003
 42.79800,-1.062222e-002
 45.69800,-1.592648e-002
 48.59800,-2.479904e-002
 51.49800,-3.679913e-002
 54.39800,-5.015139e-002
 57.29800,-6.575903e-002
 60.19800,-8.369961e-002
 63.09800,      -0.10169
 65.99800,      -0.12237
 68.89800,      -0.14228
 71.79800,      -0.16482
 74.69800,      -0.18636
 77.59800,      -0.20665
 80.49800,      -0.22796
 83.39800,      -0.24477
 86.29800,      -0.26213
 89.19800,      -0.27516
 92.09800,      -0.28953
 94.99800,      -0.29755
 97.89800,      -0.30814
100.798,      -0.31564
103.698,      -0.32302
106.598,      -0.33031
109.498,      -0.33807
112.398,      -0.34493
115.298,      -0.35256
118.198,      -0.36072
121.098,      -0.36808
123.998,      -0.37887
126.898,      -0.38988
129.798,      -0.39915
132.698,      -0.41187
135.598,      -0.42297
138.498,      -0.43627
141.398,      -0.45075
144.298,      -0.46596
147.198,      -0.48256
150.098,      -0.49777
152.998,      -0.51450
155.898,      -0.53268
158.798,      -0.54949
161.698,      -0.56758
164.598,      -0.58378
167.498,      -0.60068
170.398,      -0.61803
173.298,      -0.63511
176.198,      -0.65243
179.098,      -0.67110
181.998,      -0.68899
184.898,      -0.70848
187.798,      -0.72892
190.698,      -0.74956
193.598,      -0.77217
196.498,      -0.79503
199.398,      -0.81963
202.298,      -0.84546
205.198,      -0.87220
208.098,      -0.90179
210.998,      -0.93208
213.898,      -0.96059
216.798,      -0.99130
219.698,      -1.02504
222.598,      -1.05515
225.498,      -1.08735
228.398,      -1.12052
231.298,      -1.15505
234.198,      -1.19172
237.098,      -1.22839
239.998,      -1.26991
242.898,      -1.30751
245.798,      -1.35307
248.698,      -1.39683
251.598,      -1.44404
254.498,      -1.49126
257.398,      -1.54209
260.298,      -1.59319
263.198,      -1.64577
266.098,      -1.69979
268.998,      -1.75734
271.898,      -1.81192
274.798,      -1.86916
277.698,      -1.92775
280.598,      -1.98724
283.498,      -2.04942
286.398,      -2.11210
289.298,      -2.17548
292.198,      -2.24193
295.098,      -2.30966
297.998,      -2.37788
300.898,      -2.44865
303.798,      -2.51873
306.698,      -2.58918
309.598,      -2.66834
312.498,      -2.74623
315.398,      -2.82135
318.298,      -2.90761
321.198,      -2.98221
324.098,      -3.05812
326.998,      -3.14447
329.898,      -3.21931
332.798,      -3.31180
335.698,      -3.38627
338.598,      -3.46221
341.498,      -3.55176
344.398,      -3.62742
347.298,      -3.71621
350.198,      -3.78923
353.098,      -3.87734
355.998,      -3.95968
358.898,      -4.03711
361.798,      -4.12833
364.698,      -4.19969
367.598,      -4.27602
370.498,      -4.35019
373.398,      -4.42690
376.298,      -4.49606
379.198,      -4.56462
382.098,      -4.63513
384.998,      -4.70186
387.898,      -4.77066
390.798,      -4.85149
393.698,      -4.92370
396.598,      -4.99661
399.498,      -5.07362
402.398,      -5.15916
405.298,      -5.23585
408.198,      -5.32259
411.098,      -5.41240
413.998,      -5.49407
416.898,      -5.57233
419.798,      -5.65861
422.698,      -5.74703
425.598,      -5.82098
428.498,      -5.89971
431.398,      -5.98140
434.298,      -6.05924
437.198,      -6.13033
440.098,      -6.19750
442.998,      -6.26543
445.898,      -6.33679
448.798,      -6.40028
451.698,      -6.46561
454.598,      -6.52829
457.498,      -6.59228
460.398,      -6.65506
463.298,      -6.71641
466.198,      -6.77393
469.098,      -6.83535
471.998,      -6.89721
474.898,      -6.95566
477.798,      -7.01622
480.698,      -7.07557
483.598,      -7.13536
486.498,      -7.19611
489.398,      -7.25474
492.298,      -7.31621
495.198,      -7.37737
498.098,      -7.43853
500.998,      -7.50044
503.898,      -7.56368
506.798,      -7.62254
509.698,      -7.68492
512.598,      -7.74632
515.498,      -7.80908
518.398,      -7.86816
521.298,      -7.92784
524.198,      -7.98734
527.098,      -8.04499
529.998,      -8.10028
532.898,      -8.15593
535.798,      -8.20840
538.698,      -8.26202
541.598,      -8.31305
544.498,      -8.36516
547.398,      -8.41428
550.298,      -8.46244
553.198,      -8.51321
556.098,      -8.56387
558.998,     -17.82633
561.898,     -17.82979
564.798,     -17.83844
567.698,     -17.84280
570.598,     -17.84792
573.498,     -17.85327
576.398,     -17.86139
579.298,     -17.87020
582.198,     -17.87562
585.098,     -17.88093
587.998,     -17.88617
590.898,     -17.89349
593.798,     -17.89755
596.698,     -17.90347
599.598,     -17.91129
602.498,     -17.91849
605.398,     -17.92244
608.298,     -17.92903
611.198,     -17.93356
614.098,     -17.94052
616.998,     -17.94558
619.898,     -17.95111
622.798,     -17.95475
625.698,     -17.95869
628.598,     -17.96179
631.498,     -17.96916
634.398,     -17.97045
637.298,     -17.97690
640.198,     -17.98207
643.098,     -17.98330
645.998,     -17.98650
648.898,     -17.98871
651.798,     -17.99199
654.698,     -17.99259
657.598,     -17.99348
660.498,     -17.99805
663.398,     -17.99774
666.298,     -17.99952
669.198,     -18.00009
672.098,     -18.00076
674.998,     -18.00103
677.898,     -18.00218
680.798,     -18.00416
683.698,     -18.00712
686.598,     -18.00507
689.498,     -18.00873
692.398,     -18.00748
695.298,     -18.00843
698.198,     -18.00828
701.098,     -18.00949
703.998,     -18.01256
706.898,     -18.01281
709.798,     -18.01266
712.698,     -18.01410
715.598,     -18.01223
718.498,     -18.01568
721.398,     -18.01452
724.298,     -18.01607
727.198,     -18.01828
730.098,     -18.01723
732.998,     -18.01676
735.898,     -18.01709
738.798,     -18.01861
741.698,     -18.01923
744.598,     -18.01985
747.498,     -18.02086
750.398,     -18.02027
753.298,     -18.02115
756.198,     -18.02187
759.098,     -18.02128
761.998,     -18.02095
764.898,     -18.02072
767.798,     -18.01801
770.698,     -18.01987
773.598,     -18.02363
776.498,     -18.02380
779.398,     -18.02275
782.298,     -18.02229
785.198,     -18.02232
788.098,     -18.02185
790.998,     -18.02116
793.898,     -18.02137
796.798,     -18.02086
799.698,     -18.02106
802.598,     -18.02554
805.498,     -18.02141
808.398,     -18.01902
811.298,     -18.01792
814.198,     -18.02047
817.098,     -18.02170
819.998,     -18.02153
822.898,     -18.01995
825.798,     -18.01896
828.698,     -18.02187
831.598,     -18.01587
834.498,     -18.01734
837.398,     -18.01675
840.298,     -18.01720
843.198,     -18.01830
846.098,     -18.01477
848.998,     -18.01474
851.898,     -18.01300
854.798,     -18.01286
857.698,     -18.01162
860.598,     -18.00980
863.498,     -18.00950
866.398,     -18.00776
869.298,     -18.00740
872.198,     -18.00935
875.098,     -18.01109
877.998,     -18.00913
880.898,     -18.00737
883.798,     -18.00970
886.698,     -18.00924
889.598,     -18.00838
892.498,     -18.00862
895.398,     -18.00876
898.298,     -18.00814
899.398,     -18.00607