File: data-raw/TGA/A_TGA.csv
#EXPORTTYPE:                 ,DATA SINGLE
#FILE:                       ,A.ngb-st9
#FORMAT:                     ,NETZSCH5
#FTYPE:                      ,ANSI
#IDENTITY:                   ,Saras
#DECIMAL:                    ,POINT
#SEPARATOR:                  ,COMMA
#MTYPE:                      ,TG
#INSTRUMENT:                 ,NETZSCH TG 209F1 Libra
#PROJECT:                    ,IL
#DATE/TIME:                  ,10/03/2017 11:19:17 AM (UTC+11)
#CORR. FILE:                 ,
#TEMPCAL:                    ,TCALZERO.TCX
#LABORATORY:                 ,Capture Lab
#OPERATOR:                   ,NJN
#REMARK:                     ,Training run
#SAMPLE:                     ,A
#SAMPLE MASS /mg:            ,18.9615
#MATERIAL:                   ,KHCO3
#TYPE OF CRUCIBLE:           ,Al2O3
#SAMPLE CRUCIBLE MASS /mg:   ,311.9048
#REFERENCE CRUCIBLE MASS /mg:,
#M.RANGE /mg:                ,2000
#CORR. CODE:                 ,090
#RANGE:                      ,32°C/10.0(K/min)/800°C
#SEGMENT:                    ,S1/1
#SEG. 1:                     ,32°C/10.0(K/min)/800°C

##Temp./°C,Time/min,Mass loss/mg
 31.45300, 0.00000,-9.310921e-004
 32.57500, 0.25667,-5.954968e-003
 34.85600, 0.51333,-1.456892e-002
 37.83700, 0.77000,-2.847381e-002
 41.10700, 1.02667,-4.811487e-002
 44.30200, 1.28333,-7.164929e-002
 47.25800, 1.54000,      -0.10062
 49.95600, 1.79667,      -0.13444
 52.48900, 2.05333,      -0.17214
 54.94200, 2.31000,      -0.21409
 57.40700, 2.56667,      -0.25871
 59.90600, 2.82333,      -0.30650
 62.46000, 3.08000,      -0.35725
 65.04500, 3.33667,      -0.41117
 67.64400, 3.59333,      -0.46569
 70.24300, 3.85000,      -0.52174
 72.82700, 4.10667,      -0.57713
 75.40700, 4.36333,      -0.63014
 77.98000, 4.62000,      -0.68166
 80.55500, 4.87667,      -0.72995
 83.12700, 5.13333,      -0.77544
 85.69900, 5.39000,      -0.81612
 88.26600, 5.64667,      -0.85319
 90.83800, 5.90333,      -0.88627
 93.41200, 6.16000,      -0.91474
 95.99000, 6.41667,      -0.93980
 98.55600, 6.67333,      -0.96102
101.118, 6.93000,      -0.97912
103.676, 7.18667,      -0.99397
106.238, 7.44333,      -1.00660
108.802, 7.70000,      -1.01681
111.361, 7.95667,      -1.02356
113.93, 8.21333,      -1.02999
116.488, 8.47000,      -1.03551
119.05, 8.72667,      -1.04098
121.619, 8.98333,      -1.04575
124.179, 9.24000,      -1.05006
126.743, 9.49667,      -1.05429
129.317, 9.75333,      -1.05908
131.884,10.01000,      -1.06355
134.45,10.26667,      -1.06899
137.015,10.52333,      -1.07432
139.586,10.78000,      -1.08055
142.156,11.03667,      -1.08926
144.728,11.29333,      -1.09615
147.291,11.55000,      -1.10652
149.854,11.80667,      -1.11619
152.422,12.06333,      -1.12645
154.991,12.32000,      -1.13781
157.559,12.57667,      -1.14965
160.124,12.83333,      -1.16079
162.694,13.09000,      -1.17253
165.261,13.34667,      -1.18467
167.827,13.60333,      -1.19689
170.388,13.86000,      -1.20913
172.954,14.11667,      -1.22197
175.524,14.37333,      -1.23561
178.089,14.63000,      -1.25094
180.655,14.88667,      -1.26659
183.224,15.14333,      -1.28454
185.793,15.40000,      -1.30300
188.36,15.65667,      -1.32367
190.927,15.91333,      -1.34674
193.496,16.17000,      -1.37093
196.058,16.42667,      -1.39773
198.627,16.68333,      -1.42715
201.196,16.94000,      -1.45867
203.761,17.19667,      -1.49120
206.328,17.45333,      -1.52505
208.894,17.71000,      -1.56069
211.463,17.96667,      -1.59813
214.028,18.22333,      -1.63627
216.593,18.48000,      -1.67713
219.159,18.73667,      -1.72078
221.728,18.99333,      -1.76783
224.298,19.25000,      -1.81789
226.863,19.50667,      -1.87314
229.43,19.76333,      -1.93630
231.999,20.02000,      -2.02256
234.565,20.27667,      -2.10682
237.135,20.53333,      -2.20248
239.702,20.79000,      -2.31224
242.267,21.04667,      -2.43671
244.831,21.30333,      -2.57967
247.397,21.56000,      -2.74293
249.971,21.81667,      -2.92189
252.536,22.07333,      -3.11925
255.099,22.33000,      -3.33251
257.665,22.58667,      -3.56197
260.223,22.84333,      -3.79603
262.783,23.10000,      -4.03579
265.35,23.35667,      -4.27704
267.909,23.61333,      -4.51470
270.473,23.87000,      -4.74485
273.039,24.12667,      -4.96899
275.601,24.38333,      -5.18974
278.163,24.64000,      -5.39828
280.73,24.89667,      -5.60342
283.293,25.15333,      -5.80305
285.861,25.41000,      -6.00118
288.429,25.66667,      -6.19601
290.993,25.92333,      -6.39213
293.56,26.18000,      -6.59385
296.133,26.43667,      -6.79976
298.71,26.69333,      -7.01477
301.279,26.95000,      -7.24207
303.84,27.20667,      -7.49037
306.405,27.46333,      -7.75687
308.969,27.72000,      -8.04908
311.539,27.97667,      -8.37408
314.111,28.23333,      -8.72258
316.676,28.49000,      -9.09028
319.239,28.74667,      -9.46139
321.803,29.00333,      -9.82139
324.364,29.26000,     -10.14329
326.922,29.51667,     -10.42109
329.482,29.77333,     -10.65479
332.044,30.03000,     -10.84419
334.604,30.28667,     -11.00258
337.171,30.54333,     -11.14008
339.743,30.80000,     -11.26407
342.307,31.05667,     -11.37426
344.877,31.31333,     -11.47665
347.446,31.57000,     -11.57173
350.013,31.82667,     -11.65632
352.578,32.08333,     -11.73310
355.145,32.34000,     -11.80378
357.711,32.59667,     -11.87176
360.273,32.85333,     -11.93373
362.838,33.11000,     -11.99280
365.402,33.36667,     -12.04747
367.966,33.62333,     -12.10103
370.529,33.88000,     -12.15159
373.098,34.13667,     -12.20035
375.66,34.39333,     -12.24901
378.227,34.65000,     -12.29675
380.793,34.90667,     -12.34280
383.355,35.16333,     -12.38844
385.923,35.42000,     -12.43407
388.487,35.67667,     -12.47840
391.049,35.93333,     -12.52243
393.61,36.19000,     -12.56545
396.173,36.44667,     -12.60927
398.737,36.70333,     -12.65078
401.304,36.96000,     -12.69238
403.871,37.21667,     -12.73388
406.431,37.47333,     -12.77469
408.996,37.73000,     -12.81348
411.563,37.98667,     -12.85227
414.129,38.24333,     -12.89166
416.696,38.50000,     -12.92894
419.26,38.75667,     -12.96693
421.826,39.01333,     -13.00321
424.397,39.27000,     -13.03928
426.959,39.52667,     -13.07416
429.523,39.78333,     -13.10884
432.09,40.04000,     -13.14270
434.652,40.29667,     -13.17527
437.219,40.55333,     -13.20732
439.78,40.81000,     -13.23889
442.348,41.06667,     -13.26944
444.915,41.32333,     -13.29959
447.477,41.58000,     -13.32805
450.043,41.83667,     -13.35639
452.605,42.09333,     -13.38344
455.169,42.35000,     -13.40948
457.735,42.60667,     -13.43621
460.297,42.86333,     -13.46145
462.86,43.12000,     -13.48548
465.43,43.37667,     -13.50961
467.996,43.63333,     -13.53164
470.562,43.89000,     -13.55396
473.121,44.14667,     -13.57508
475.688,44.40333,     -13.59599
478.248,44.66000,     -13.61611
480.809,44.91667,     -13.63502
483.378,45.17333,     -13.65363
485.941,45.43000,     -13.67163
488.502,45.68667,     -13.68924
491.076,45.94333,     -13.70613
493.637,46.20000,     -13.72313
496.2,46.45667,     -13.73862
498.764,46.71333,     -13.75401
501.328,46.97000,     -13.76920
503.889,47.22667,     -13.78319
506.454,47.48333,     -13.79767
509.02,47.74000,     -13.81145
511.585,47.99667,     -13.82453
514.148,48.25333,     -13.83731
516.711,48.51000,     -13.85008
519.276,48.76667,     -13.86205
521.848,49.02333,     -13.87402
524.403,49.28000,     -13.88620
526.972,49.53667,     -13.89736
529.536,49.79333,     -13.90782
532.097,50.05000,     -13.91968
534.665,50.30667,     -13.92874
537.23,50.56333,     -13.93930
539.793,50.82000,     -13.95005
542.355,51.07667,     -13.95960
544.928,51.33333,     -13.96984
547.482,51.59000,     -13.97959
550.055,51.84667,     -13.98872
552.619,52.10333,     -13.99816
555.188,52.36000,     -14.00730
557.746,52.61667,     -14.01613
560.307,52.87333,     -14.02376
562.882,53.13000,     -14.03048
565.44,53.38667,     -14.04030
568.013,53.64333,     -14.04801
570.583,53.90000,     -14.05563
573.144,54.15667,     -14.06314
575.71,54.41333,     -14.07164
578.271,54.67000,     -14.07804
580.841,54.92667,     -14.08483
583.407,55.18333,     -14.09433
585.981,55.44000,     -14.10001
588.542,55.69667,     -14.10661
591.097,55.95333,     -14.11379
593.674,56.21000,     -14.12225
596.233,56.46667,     -14.12763
598.796,56.72333,     -14.13390
601.367,56.98000,     -14.14125
603.929,57.23667,     -14.14821
606.497,57.49333,     -14.15366
609.067,57.75000,     -14.16011
611.628,58.00667,     -14.16666
614.198,58.26333,     -14.17310
616.762,58.52000,     -14.17893
619.33,58.77667,     -14.18486
621.893,59.03333,     -14.19110
624.461,59.29000,     -14.19641
627.034,59.54667,     -14.20193
629.594,59.80333,     -14.20725
632.167,60.06000,     -14.21196
634.731,60.31667,     -14.21728
637.296,60.57333,     -14.22258
639.862,60.83000,     -14.22748
642.427,61.08667,     -14.23218
644.989,61.34333,     -14.23748
647.553,61.60000,     -14.24237
650.116,61.85667,     -14.24736
652.691,62.11333,     -14.25215
655.253,62.37000,     -14.25723
657.82,62.62667,     -14.26151
660.378,62.88333,     -14.26699
662.954,63.14000,     -14.27146
665.519,63.39667,     -14.27584
668.083,63.65333,     -14.27991
670.642,63.91000,     -14.28468
673.21,64.16667,     -14.28904
675.778,64.42333,     -14.29291
678.345,64.68000,     -14.29707
680.904,64.93667,     -14.30123
683.473,65.19333,     -14.30588
686.042,65.45000,     -14.31024
688.608,65.70667,     -14.31459
691.175,65.96333,     -14.31874
693.747,66.22000,     -14.32188
696.313,66.47667,     -14.32583
698.879,66.73333,     -14.33038
701.444,66.99000,     -14.33392
704.01,67.24667,     -14.33756
706.575,67.50333,     -14.34211
709.148,67.76000,     -14.34535
711.707,68.01667,     -14.35009
714.274,68.27333,     -14.35413
716.843,68.53000,     -14.35757
719.411,68.78667,     -14.36091
721.978,69.04333,     -14.36415
724.543,69.30000,     -14.36849
727.109,69.55667,     -14.37212
729.674,69.81333,     -14.37656
732.24,70.07000,     -14.37959
734.806,70.32667,     -14.38292
737.367,70.58333,     -14.38625
739.93,70.84000,     -14.38997
742.504,71.09667,     -14.39289
745.062,71.35333,     -14.39671
747.634,71.61000,     -14.39992
750.194,71.86667,     -14.40373
752.767,72.12333,     -14.40783
755.319,72.38000,     -14.41145
757.894,72.63667,     -14.41494
760.453,72.89333,     -14.41784
763.022,73.15000,     -14.42083
765.59,73.40667,     -14.42451
768.155,73.66333,     -14.42810
770.719,73.92000,     -14.43157
773.282,74.17667,     -14.43494
775.844,74.43333,     -14.43871
778.411,74.69000,     -14.44167
780.974,74.94667,     -14.44443
783.542,75.20333,     -14.44757
786.114,75.46000,     -14.45111
788.693,75.71667,     -14.45364
791.256,75.97333,     -14.45728
793.83,76.23000,     -14.46019
796.389,76.48667,     -14.46321
798.945,76.74333,     -14.46583
799.49,76.79833,     -14.46654