File: data-raw/TGA/AA_TGA.csv
#EXPORTTYPE:                 ,DATA SINGLE
#FILE:                       ,AA.ngb-st9
#FORMAT:                     ,NETZSCH5
#FTYPE:                      ,ANSI
#IDENTITY:                   ,Saras
#DECIMAL:                    ,POINT
#SEPARATOR:                  ,COMMA
#MTYPE:                      ,TG
#INSTRUMENT:                 ,NETZSCH TG 209F1 Libra
#PROJECT:                    ,IL
#DATE/TIME:                  ,10/03/2017 4:03:09 PM (UTC+11)
#CORR. FILE:                 ,
#TEMPCAL:                    ,TCALZERO.TCX
#LABORATORY:                 ,Capture Lab
#OPERATOR:                   ,NJN
#REMARK:                     ,Training run
#SAMPLE:                     ,AA
#SAMPLE MASS /mg:            ,10.4106
#MATERIAL:                   ,KHCO3
#TYPE OF CRUCIBLE:           ,Al2O3
#SAMPLE CRUCIBLE MASS /mg:   ,311.8469
#REFERENCE CRUCIBLE MASS /mg:,
#M.RANGE /mg:                ,2000
#CORR. CODE:                 ,090
#RANGE:                      ,32°C/10.0(K/min)/800°C
#SEGMENT:                    ,S1/1
#SEG. 1:                     ,32°C/10.0(K/min)/800°C

##Temp./°C,Time/min,Mass loss/mg
 31.34300, 0.00000,-2.474829e-003
 32.51000, 0.25667,-5.586140e-003
 34.85600, 0.51333,-1.237412e-002
 37.87800, 0.77000,-2.245914e-002
 41.15900, 1.02667,-3.936571e-002
 44.34300, 1.28333,-5.869846e-002
 47.27700, 1.54000,-8.093437e-002
 49.95900, 1.79667,      -0.10599
 52.47400, 2.05333,      -0.13278
 54.93100, 2.31000,      -0.16119
 57.39700, 2.56667,      -0.19031
 59.91500, 2.82333,      -0.22017
 62.47700, 3.08000,      -0.25008
 65.07100, 3.33667,      -0.28017
 67.67600, 3.59333,      -0.30883
 70.26600, 3.85000,      -0.33699
 72.83400, 4.10667,      -0.36239
 75.40200, 4.36333,      -0.38701
 77.97200, 4.62000,      -0.40913
 80.53600, 4.87667,      -0.43002
 83.10400, 5.13333,      -0.44833
 85.66500, 5.39000,      -0.46459
 88.24100, 5.64667,      -0.47891
 90.81400, 5.90333,      -0.49126
 93.39000, 6.16000,      -0.50142
 95.95800, 6.41667,      -0.51078
 98.52300, 6.67333,      -0.51722
101.09, 6.93000,      -0.52364
103.657, 7.18667,      -0.52889
106.215, 7.44333,      -0.53369
108.781, 7.70000,      -0.53740
111.343, 7.95667,      -0.54066
113.908, 8.21333,      -0.54320
116.476, 8.47000,      -0.54550
119.045, 8.72667,      -0.54718
121.609, 8.98333,      -0.54884
124.176, 9.24000,      -0.55057
126.745, 9.49667,      -0.55198
129.309, 9.75333,      -0.55336
131.876,10.01000,      -0.55494
134.442,10.26667,      -0.55719
137.012,10.52333,      -0.55873
139.584,10.78000,      -0.55985
142.152,11.03667,      -0.56215
144.72,11.29333,      -0.56474
147.288,11.55000,      -0.56693
149.85,11.80667,      -0.57009
152.418,12.06333,      -0.57235
154.986,12.32000,      -0.57631
157.551,12.57667,      -0.58045
160.119,12.83333,      -0.58480
162.685,13.09000,      -0.59193
165.253,13.34667,      -0.59657
167.816,13.60333,      -0.60290
170.384,13.86000,      -0.61223
172.947,14.11667,      -0.61946
175.515,14.37333,      -0.63110
178.084,14.63000,      -0.64205
180.654,14.88667,      -0.65509
183.219,15.14333,      -0.66994
185.789,15.40000,      -0.68710
188.35,15.65667,      -0.70776
190.917,15.91333,      -0.73194
193.491,16.17000,      -0.76003
196.06,16.42667,      -0.79083
198.625,16.68333,      -0.82504
201.19,16.94000,      -0.86287
203.753,17.19667,      -0.90241
206.321,17.45333,      -0.94464
208.893,17.71000,      -0.98589
211.457,17.96667,      -1.02723
214.024,18.22333,      -1.06747
216.59,18.48000,      -1.10652
219.155,18.73667,      -1.14407
221.723,18.99333,      -1.18203
224.29,19.25000,      -1.21899
226.859,19.50667,      -1.25864
229.425,19.76333,      -1.29980
231.995,20.02000,      -1.34416
234.564,20.27667,      -1.39292
237.124,20.53333,      -1.44678
239.685,20.79000,      -1.50654
242.253,21.04667,      -1.58431
244.816,21.30333,      -1.65407
247.383,21.56000,      -1.74083
249.949,21.81667,      -1.82500
252.515,22.07333,      -1.91936
255.078,22.33000,      -2.01652
257.646,22.58667,      -2.11898
260.212,22.84333,      -2.22493
262.776,23.10000,      -2.33129
265.351,23.35667,      -2.44215
267.915,23.61333,      -2.55200
270.475,23.87000,      -2.66415
273.042,24.12667,      -2.77419
275.611,24.38333,      -2.88364
278.171,24.64000,      -2.99248
280.735,24.89667,      -3.09842
283.301,25.15333,      -3.20415
285.868,25.41000,      -3.31038
288.427,25.66667,      -3.41341
290.991,25.92333,      -3.51653
293.569,26.18000,      -3.62185
296.137,26.43667,      -3.72626
298.696,26.69333,      -3.83467
301.261,26.95000,      -3.94777
303.831,27.20667,      -4.06597
306.395,27.46333,      -4.19137
308.958,27.72000,      -4.32578
311.52,27.97667,      -4.47508
314.092,28.23333,      -4.63738
316.662,28.49000,      -4.81548
319.225,28.74667,      -5.00919
321.788,29.00333,      -5.21739
324.353,29.26000,      -5.42859
326.92,29.51667,      -5.63589
329.493,29.77333,      -5.82889
332.058,30.03000,      -6.00208
334.62,30.28667,      -6.14478
337.189,30.54333,      -6.26047
339.75,30.80000,      -6.34527
342.314,31.05667,      -6.41266
344.875,31.31333,      -6.46715
347.439,31.57000,      -6.51334
350.004,31.82667,      -6.55372
352.568,32.08333,      -6.58990
355.135,32.34000,      -6.62288
357.705,32.59667,      -6.65266
360.268,32.85333,      -6.68113
362.834,33.11000,      -6.70880
365.397,33.36667,      -6.73417
367.963,33.62333,      -6.75993
370.528,33.88000,      -6.78450
373.1,34.13667,      -6.80905
375.663,34.39333,      -6.83270
378.224,34.65000,      -6.85535
380.789,34.90667,      -6.87740
383.349,35.16333,      -6.89914
385.913,35.42000,      -6.92097
388.479,35.67667,      -6.94200
391.046,35.93333,      -6.96343
393.612,36.19000,      -6.98315
396.177,36.44667,      -7.00447
398.739,36.70333,      -7.02458
401.304,36.96000,      -7.04368
403.866,37.21667,      -7.06269
406.428,37.47333,      -7.08218
408.999,37.73000,      -7.10168
411.569,37.98667,      -7.12077
414.133,38.24333,      -7.13936
416.702,38.50000,      -7.15654
419.264,38.75667,      -7.17483
421.824,39.01333,      -7.19221
424.399,39.27000,      -7.21068
426.953,39.52667,      -7.22786
429.523,39.78333,      -7.24383
432.086,40.04000,      -7.26070
434.644,40.29667,      -7.27707
437.216,40.55333,      -7.29212
439.773,40.81000,      -7.30809
442.345,41.06667,      -7.32364
444.909,41.32333,      -7.33829
447.47,41.58000,      -7.35345
450.035,41.83667,      -7.36739
452.604,42.09333,      -7.38133
455.171,42.35000,      -7.39458
457.736,42.60667,      -7.40891
460.297,42.86333,      -7.42155
462.857,43.12000,      -7.43369
465.423,43.37667,      -7.44531
467.988,43.63333,      -7.45824
470.549,43.89000,      -7.46936
473.113,44.14667,      -7.48028
475.681,44.40333,      -7.49090
478.242,44.66000,      -7.50192
480.808,44.91667,      -7.51242
483.374,45.17333,      -7.52313
485.941,45.43000,      -7.53293
488.506,45.68667,      -7.54124
491.067,45.94333,      -7.55194
493.632,46.20000,      -7.56163
496.194,46.45667,      -7.56882
498.76,46.71333,      -7.57871
501.318,46.97000,      -7.58610
503.887,47.22667,      -7.59608
506.456,47.48333,      -7.60367
509.016,47.74000,      -7.61065
511.583,47.99667,      -7.61733
514.145,48.25333,      -7.62761
516.711,48.51000,      -7.63318
519.275,48.76667,      -7.64045
521.84,49.02333,      -7.64803
524.402,49.28000,      -7.65489
526.966,49.53667,      -7.66236
529.536,49.79333,      -7.66762
532.101,50.05000,      -7.67348
534.658,50.30667,      -7.68054
537.222,50.56333,      -7.68680
539.787,50.82000,      -7.69235
542.349,51.07667,      -7.69820
544.915,51.33333,      -7.70415
547.478,51.59000,      -7.71009
550.044,51.84667,      -7.71553
552.61,52.10333,      -7.72157
555.175,52.36000,      -7.72700
557.745,52.61667,      -7.73233
560.31,52.87333,      -7.73746
562.878,53.13000,      -7.74178
565.445,53.38667,      -7.74700
568.01,53.64333,      -7.75252
570.578,53.90000,      -7.75813
573.146,54.15667,      -7.76253
575.715,54.41333,      -7.76634
578.281,54.67000,      -7.77154
580.851,54.92667,      -7.77713
583.414,55.18333,      -7.78183
585.98,55.44000,      -7.78631
588.545,55.69667,      -7.79090
591.118,55.95333,      -7.79477
593.679,56.21000,      -7.80006
596.247,56.46667,      -7.80432
598.819,56.72333,      -7.80929
601.385,56.98000,      -7.81345
603.952,57.23667,      -7.81781
606.515,57.49333,      -7.82176
609.079,57.75000,      -7.82681
611.651,58.00667,      -7.83045
614.217,58.26333,      -7.83369
616.779,58.52000,      -7.83803
619.343,58.77667,      -7.84316
621.914,59.03333,      -7.84648
624.48,59.29000,      -7.85071
627.048,59.54667,      -7.85513
629.609,59.80333,      -7.85785
632.178,60.06000,      -7.86206
634.745,60.31667,      -7.86447
637.308,60.57333,      -7.86858
639.873,60.83000,      -7.87158
642.441,61.08667,      -7.87548
645.002,61.34333,      -7.87808
647.565,61.60000,      -7.88137
650.132,61.85667,      -7.88486
652.695,62.11333,      -7.88845
655.26,62.37000,      -7.89113
657.826,62.62667,      -7.89391
660.395,62.88333,      -7.89819
662.962,63.14000,      -7.90096
665.523,63.39667,      -7.90294
668.087,63.65333,      -7.90521
670.647,63.91000,      -7.90838
673.217,64.16667,      -7.91214
675.787,64.42333,      -7.91460
678.349,64.68000,      -7.91677
680.909,64.93667,      -7.92043
683.483,65.19333,      -7.92288
686.042,65.45000,      -7.92544
688.604,65.70667,      -7.92769
691.165,65.96333,      -7.92934
693.742,66.22000,      -7.93318
696.31,66.47667,      -7.93553
698.881,66.73333,      -7.93657
701.441,66.99000,      -7.94163
704.011,67.24667,      -7.94316
706.576,67.50333,      -7.94741
709.143,67.76000,      -7.94905
711.712,68.01667,      -7.95189
714.287,68.27333,      -7.95323
716.835,68.53000,      -7.95708
719.404,68.78667,      -7.95901
721.972,69.04333,      -7.96135
724.533,69.30000,      -7.96310
727.112,69.55667,      -7.96642
729.673,69.81333,      -7.96866
732.24,70.07000,      -7.96989
734.799,70.32667,      -7.97202
737.369,70.58333,      -7.97514
739.938,70.84000,      -7.97746
742.508,71.09667,      -7.97928
745.073,71.35333,      -7.98150
747.642,71.61000,      -7.98411
750.202,71.86667,      -7.98733
752.775,72.12333,      -7.98923
755.332,72.38000,      -7.99224
757.89,72.63667,      -7.99385
760.465,72.89333,      -7.99553
763.028,73.15000,      -7.99842
765.584,73.40667,      -8.00122
768.159,73.66333,      -8.00509
770.722,73.92000,      -8.00457
773.285,74.17667,      -8.00814
775.854,74.43333,      -8.01081
778.42,74.69000,      -8.01307
780.983,74.94667,      -8.01562
783.547,75.20333,      -8.01767
786.126,75.46000,      -8.01890
788.693,75.71667,      -8.02084
791.258,75.97333,      -8.02267
793.834,76.23000,      -8.02589
796.406,76.48667,      -8.02781
798.955,76.74333,      -8.03033
799.502,76.79833,      -8.03063