File: data-raw/TGA/B_TGA.csv
#EXPORTTYPE:                 ,DATA SINGLE
#FILE:                       ,B.ngb-st9
#FORMAT:                     ,NETZSCH5
#FTYPE:                      ,ANSI
#IDENTITY:                   ,Saras
#DECIMAL:                    ,POINT
#SEPARATOR:                  ,COMMA
#MTYPE:                      ,TG
#INSTRUMENT:                 ,NETZSCH TG 209F1 Libra
#PROJECT:                    ,IL
#DATE/TIME:                  ,10/03/2017 9:20:53 AM (UTC+11)
#CORR. FILE:                 ,
#TEMPCAL:                    ,TCALZERO.TCX
#LABORATORY:                 ,Capture Lab
#OPERATOR:                   ,NJN
#REMARK:                     ,Training run
#SAMPLE:                     ,B
#SAMPLE MASS /mg:            ,12.0508
#MATERIAL:                   ,KHCO3
#TYPE OF CRUCIBLE:           ,Al2O3
#SAMPLE CRUCIBLE MASS /mg:   ,311.0480
#REFERENCE CRUCIBLE MASS /mg:,
#M.RANGE /mg:                ,2000
#CORR. CODE:                 ,090
#RANGE:                      ,32°C/10.0(K/min)/800°C
#SEGMENT:                    ,S1/1
#SEG. 1:                     ,32°C/10.0(K/min)/800°C

##Temp./°C,Time/min,Mass loss/mg
 31.53600, 0.00000,-1.041827e-003
 32.66700, 0.25667,-5.986939e-003
 34.92800, 0.51333,-1.229152e-002
 37.87600, 0.77000,-2.194571e-002
 41.10900, 1.02667,-3.835045e-002
 44.28800, 1.28333,-5.696183e-002
 47.23600, 1.54000,-7.867746e-002
 49.93700, 1.79667,      -0.10416
 52.47300, 2.05333,      -0.13125
 54.93600, 2.31000,      -0.16061
 57.40700, 2.56667,      -0.19124
 59.91600, 2.82333,      -0.22275
 62.46900, 3.08000,      -0.25483
 65.05700, 3.33667,      -0.28606
 67.65500, 3.59333,      -0.31758
 70.24800, 3.85000,      -0.34683
 72.82900, 4.10667,      -0.37574
 75.40200, 4.36333,      -0.40243
 77.97200, 4.62000,      -0.42714
 80.53300, 4.87667,      -0.44922
 83.10000, 5.13333,      -0.46892
 85.66800, 5.39000,      -0.48661
 88.23000, 5.64667,      -0.50176
 90.81000, 5.90333,      -0.51568
 93.38300, 6.16000,      -0.52734
 95.95500, 6.41667,      -0.53657
 98.51900, 6.67333,      -0.54472
101.083, 6.93000,      -0.55024
103.652, 7.18667,      -0.55671
106.212, 7.44333,      -0.56109
108.776, 7.70000,      -0.56520
111.336, 7.95667,      -0.56856
113.903, 8.21333,      -0.57151
116.468, 8.47000,      -0.57430
119.036, 8.72667,      -0.57678
121.601, 8.98333,      -0.57974
124.17, 9.24000,      -0.58288
126.732, 9.49667,      -0.58568
129.299, 9.75333,      -0.58797
131.872,10.01000,      -0.59145
134.441,10.26667,      -0.59500
137.01,10.52333,      -0.59923
139.576,10.78000,      -0.60415
142.144,11.03667,      -0.60976
144.716,11.29333,      -0.61635
147.278,11.55000,      -0.62622
149.85,11.80667,      -0.63589
152.418,12.06333,      -0.64605
154.982,12.32000,      -0.65760
157.55,12.57667,      -0.67065
160.115,12.83333,      -0.68539
162.681,13.09000,      -0.70213
165.241,13.34667,      -0.72116
167.807,13.60333,      -0.74270
170.375,13.86000,      -0.76784
172.943,14.11667,      -0.79666
175.51,14.37333,      -0.83071
178.079,14.63000,      -0.86984
180.646,14.88667,      -0.91409
183.216,15.14333,      -0.96434
185.782,15.40000,      -1.02100
188.352,15.65667,      -1.08167
190.922,15.91333,      -1.14705
193.488,16.17000,      -1.21903
196.057,16.42667,      -1.29843
198.629,16.68333,      -1.36495
201.19,16.94000,      -1.43137
203.755,17.19667,      -1.49890
206.323,17.45333,      -1.55685
208.894,17.71000,      -1.61619
211.459,17.96667,      -1.67283
214.024,18.22333,      -1.72667
216.586,18.48000,      -1.77852
219.156,18.73667,      -1.82978
221.722,18.99333,      -1.88133
224.291,19.25000,      -1.93529
226.857,19.50667,      -1.99054
229.422,19.76333,      -2.04930
231.981,20.02000,      -2.11786
234.548,20.27667,      -2.18512
237.12,20.53333,      -2.25548
239.684,20.79000,      -2.33684
242.252,21.04667,      -2.42651
244.81,21.30333,      -2.51237
247.379,21.56000,      -2.60073
249.946,21.81667,      -2.69230
252.514,22.07333,      -2.78696
255.079,22.33000,      -2.88222
257.644,22.58667,      -2.98008
260.21,22.84333,      -3.08073
262.776,23.10000,      -3.18049
265.34,23.35667,      -3.28344
267.906,23.61333,      -3.38670
270.471,23.87000,      -3.49385
273.04,24.12667,      -3.60069
275.603,24.38333,      -3.71004
278.168,24.64000,      -3.82298
280.737,24.89667,      -3.93752
283.301,25.15333,      -4.05525
285.864,25.41000,      -4.17738
288.435,25.66667,      -4.30691
290.998,25.92333,      -4.44183
293.561,26.18000,      -4.58535
296.128,26.43667,      -4.74106
298.701,26.69333,      -4.90997
301.272,26.95000,      -5.09047
303.831,27.20667,      -5.28327
306.396,27.46333,      -5.48937
308.962,27.72000,      -5.69808
311.533,27.97667,      -5.90538
314.095,28.23333,      -6.10668
316.662,28.49000,      -6.29718
319.226,28.74667,      -6.46649
321.784,29.00333,      -6.61139
324.349,29.26000,      -6.73389
326.917,29.51667,      -6.83079
329.479,29.77333,      -6.90979
332.048,30.03000,      -6.96399
334.607,30.28667,      -7.02178
337.176,30.54333,      -7.07148
339.741,30.80000,      -7.11717
342.305,31.05667,      -7.15836
344.873,31.31333,      -7.19785
347.443,31.57000,      -7.23464
350.006,31.82667,      -7.26842
352.573,32.08333,      -7.30110
355.147,32.34000,      -7.33338
357.708,32.59667,      -7.36356
360.267,32.85333,      -7.39303
362.834,33.11000,      -7.42230
365.398,33.36667,      -7.45007
367.964,33.62333,      -7.47763
370.529,33.88000,      -7.50479
373.095,34.13667,      -7.53075
375.663,34.39333,      -7.55640
378.225,34.65000,      -7.58105
380.796,34.90667,      -7.60599
383.365,35.16333,      -7.63064
385.925,35.42000,      -7.65357
388.486,35.67667,      -7.67760
391.055,35.93333,      -7.70123
393.616,36.19000,      -7.72415
396.18,36.44667,      -7.74647
398.744,36.70333,      -7.76938
401.306,36.96000,      -7.79128
403.873,37.21667,      -7.81288
406.433,37.47333,      -7.83548
409.001,37.73000,      -7.85658
411.565,37.98667,      -7.87737
414.131,38.24333,      -7.89816
416.699,38.50000,      -7.91854
419.264,38.75667,      -7.93933
421.828,39.01333,      -7.95991
424.392,39.27000,      -7.97949
426.956,39.52667,      -7.99866
429.52,39.78333,      -8.01773
432.082,40.04000,      -8.03740
434.646,40.29667,      -8.05547
437.211,40.55333,      -8.07403
439.776,40.81000,      -8.09199
442.348,41.06667,      -8.10924
444.915,41.32333,      -8.12599
447.473,41.58000,      -8.14265
450.038,41.83667,      -8.15909
452.597,42.09333,      -8.17464
455.163,42.35000,      -8.19028
457.733,42.60667,      -8.20531
460.297,42.86333,      -8.21985
462.861,43.12000,      -8.23348
465.428,43.37667,      -8.24791
467.995,43.63333,      -8.26133
470.566,43.89000,      -8.27445
473.124,44.14667,      -8.28608
475.688,44.40333,      -8.29789
478.253,44.66000,      -8.31011
480.817,44.91667,      -8.32112
483.367,45.17333,      -8.33304
485.943,45.43000,      -8.34263
488.511,45.68667,      -8.35273
491.071,45.94333,      -8.36253
493.639,46.20000,      -8.37223
496.206,46.45667,      -8.38142
498.764,46.71333,      -8.39042
501.331,46.97000,      -8.40010
503.897,47.22667,      -8.40808
506.458,47.48333,      -8.41717
509.024,47.74000,      -8.42485
511.589,47.99667,      -8.43283
514.158,48.25333,      -8.44040
516.722,48.51000,      -8.44788
519.285,48.76667,      -8.45505
521.853,49.02333,      -8.46142
524.415,49.28000,      -8.46789
526.979,49.53667,      -8.47486
529.545,49.79333,      -8.48082
532.109,50.05000,      -8.48958
534.677,50.30667,      -8.49474
537.245,50.56333,      -8.50059
539.806,50.82000,      -8.50655
542.374,51.07667,      -8.51239
544.94,51.33333,      -8.51844
547.502,51.59000,      -8.52389
550.067,51.84667,      -8.52922
552.636,52.10333,      -8.53516
555.203,52.36000,      -8.54069
557.771,52.61667,      -8.54632
560.341,52.87333,      -8.55075
562.911,53.13000,      -8.55517
565.471,53.38667,      -8.56030
568.036,53.64333,      -8.56551
570.605,53.90000,      -8.57072
573.168,54.15667,      -8.57563
575.734,54.41333,      -8.58114
578.303,54.67000,      -8.58683
580.863,54.92667,      -8.59153
583.434,55.18333,      -8.59632
585.996,55.44000,      -8.60081
588.564,55.69667,      -8.60589
591.134,55.95333,      -8.61057
593.7,56.21000,      -8.61475
596.263,56.46667,      -8.61962
598.835,56.72333,      -8.62448
601.399,56.98000,      -8.62885
603.967,57.23667,      -8.63290
606.535,57.49333,      -8.63705
609.098,57.75000,      -8.64160
611.661,58.00667,      -8.64575
614.227,58.26333,      -8.65019
616.793,58.52000,      -8.65362
619.356,58.77667,      -8.65786
621.922,59.03333,      -8.66218
624.492,59.29000,      -8.66611
627.058,59.54667,      -8.66963
629.622,59.80333,      -8.67295
632.191,60.06000,      -8.67695
634.758,60.31667,      -8.68077
637.317,60.57333,      -8.68438
639.883,60.83000,      -8.68848
642.443,61.08667,      -8.69258
645.009,61.34333,      -8.69587
647.575,61.60000,      -8.69917
650.143,61.85667,      -8.70295
652.712,62.11333,      -8.70614
655.276,62.37000,      -8.71002
657.836,62.62667,      -8.71341
660.407,62.88333,      -8.71768
662.975,63.14000,      -8.72126
665.543,63.39667,      -8.72433
668.109,63.65333,      -8.72790
670.671,63.91000,      -8.73117
673.244,64.16667,      -8.73483
675.801,64.42333,      -8.73830
678.366,64.68000,      -8.74216
680.934,64.93667,      -8.74542
683.502,65.19333,      -8.74857
686.059,65.45000,      -8.75173
688.627,65.70667,      -8.75548
691.197,65.96333,      -8.75873
693.762,66.22000,      -8.76198
696.335,66.47667,      -8.76512
698.897,66.73333,      -8.76867
701.469,66.99000,      -8.77141
704.038,67.24667,      -8.77505
706.597,67.50333,      -8.77780
709.164,67.76000,      -8.78104
711.727,68.01667,      -8.78439
714.293,68.27333,      -8.78763
716.864,68.53000,      -8.79167
719.429,68.78667,      -8.79481
722.002,69.04333,      -8.79864
724.559,69.30000,      -8.80199
727.125,69.55667,      -8.80562
729.687,69.81333,      -8.80946
732.258,70.07000,      -8.81348
734.824,70.32667,      -8.81701
737.398,70.58333,      -8.81953
739.955,70.84000,      -8.82286
742.525,71.09667,      -8.82708
745.088,71.35333,      -8.83060
747.652,71.61000,      -8.83511
750.224,71.86667,      -8.83912
752.785,72.12333,      -8.84223
755.355,72.38000,      -8.84643
757.916,72.63667,      -8.85023
760.488,72.89333,      -8.85393
763.057,73.15000,      -8.85731
765.623,73.40667,      -8.86090
768.185,73.66333,      -8.86589
770.748,73.92000,      -8.87036
773.32,74.17667,      -8.87433
775.88,74.43333,      -8.87840
778.444,74.69000,      -8.88276
781.011,74.94667,      -8.88701
783.585,75.20333,      -8.89116
786.152,75.46000,      -8.89550
788.715,75.71667,      -8.90024
791.28,75.97333,      -8.90477
793.849,76.23000,      -8.90989
796.422,76.48667,      -8.91560
799.005,76.74333,      -8.91890
799.391,76.78167,      -8.91956