File: data-raw/TGA/BB_TGA.csv
#EXPORTTYPE:                 ,DATA SINGLE
#FILE:                       ,BB.ngb-st9
#FORMAT:                     ,NETZSCH5
#FTYPE:                      ,ANSI
#IDENTITY:                   ,Saras
#DECIMAL:                    ,POINT
#SEPARATOR:                  ,COMMA
#MTYPE:                      ,TG
#INSTRUMENT:                 ,NETZSCH TG 209F1 Libra
#PROJECT:                    ,IL
#DATE/TIME:                  ,13/03/2017 9:42:59 AM (UTC+11)
#CORR. FILE:                 ,
#TEMPCAL:                    ,TCALZERO.TCX
#LABORATORY:                 ,Capture Lab
#OPERATOR:                   ,NJN
#REMARK:                     ,Training run
#SAMPLE:                     ,BB
#SAMPLE MASS /mg:            ,16.1549
#MATERIAL:                   ,KHCO3
#TYPE OF CRUCIBLE:           ,Al2O3
#SAMPLE CRUCIBLE MASS /mg:   ,311.0814
#REFERENCE CRUCIBLE MASS /mg:,
#M.RANGE /mg:                ,2000
#CORR. CODE:                 ,090
#RANGE:                      ,32°C/10.0(K/min)/800°C
#SEGMENT:                    ,S1/1
#SEG. 1:                     ,32°C/10.0(K/min)/800°C

##Temp./°C,Time/min,Mass loss/mg
 31.97300, 0.00000,-1.997354e-003
 33.03900, 0.25667,-5.636908e-004
 35.14800, 0.51333,-1.399620e-003
 37.92800, 0.77000,-3.309627e-003
 41.05800, 1.02667,-6.136477e-003
 44.20000, 1.28333,-1.256003e-002
 47.16600, 1.54000,-2.357497e-002
 49.90600, 1.79667,-3.431356e-002
 52.47200, 2.05333,-4.745896e-002
 54.95300, 2.31000,-6.367003e-002
 57.42600, 2.56667,-8.152723e-002
 59.92100, 2.82333,      -0.10230
 62.46800, 3.08000,      -0.12473
 65.04300, 3.33667,      -0.14943
 67.63500, 3.59333,      -0.17706
 70.23000, 3.85000,      -0.20582
 72.81000, 4.10667,      -0.23503
 75.38300, 4.36333,      -0.26593
 77.95600, 4.62000,      -0.29665
 80.52600, 4.87667,      -0.32715
 83.09400, 5.13333,      -0.35653
 85.66700, 5.39000,      -0.38453
 88.24600, 5.64667,      -0.41141
 90.81600, 5.90333,      -0.43688
 93.38900, 6.16000,      -0.45953
 95.96100, 6.41667,      -0.48090
 98.52800, 6.67333,      -0.50113
101.099, 6.93000,      -0.51886
103.663, 7.18667,      -0.53518
106.232, 7.44333,      -0.55002
108.794, 7.70000,      -0.56350
111.354, 7.95667,      -0.57575
113.92, 8.21333,      -0.58670
116.481, 8.47000,      -0.59730
119.049, 8.72667,      -0.60758
121.613, 8.98333,      -0.61744
124.173, 9.24000,      -0.62876
126.739, 9.49667,      -0.63898
129.306, 9.75333,      -0.65027
131.875,10.01000,      -0.66165
134.444,10.26667,      -0.67370
137.016,10.52333,      -0.68594
139.582,10.78000,      -0.69914
142.155,11.03667,      -0.71306
144.725,11.29333,      -0.72714
147.29,11.55000,      -0.74142
149.861,11.80667,      -0.75549
152.434,12.06333,      -0.76935
155.002,12.32000,      -0.78380
157.567,12.57667,      -0.79855
160.124,12.83333,      -0.81449
162.688,13.09000,      -0.83072
165.251,13.34667,      -0.84846
167.822,13.60333,      -0.86700
170.386,13.86000,      -0.88573
172.954,14.11667,      -0.90587
175.523,14.37333,      -0.92641
178.089,14.63000,      -0.94754
180.656,14.88667,      -0.96918
183.222,15.14333,      -0.99244
185.789,15.40000,      -1.01620
188.355,15.65667,      -1.04106
190.929,15.91333,      -1.06635
193.497,16.17000,      -1.09303
196.065,16.42667,      -1.12043
198.629,16.68333,      -1.14894
201.194,16.94000,      -1.17957
203.76,17.19667,      -1.21141
206.323,17.45333,      -1.24555
208.893,17.71000,      -1.28088
211.463,17.96667,      -1.31923
214.026,18.22333,      -1.36188
216.591,18.48000,      -1.40752
219.159,18.73667,      -1.45627
221.726,18.99333,      -1.50963
224.292,19.25000,      -1.56828
226.856,19.50667,      -1.63084
229.425,19.76333,      -1.70410
231.995,20.02000,      -1.77586
234.561,20.27667,      -1.86332
237.118,20.53333,      -1.94468
239.688,20.79000,      -2.03095
242.26,21.04667,      -2.12341
244.821,21.30333,      -2.21857
247.391,21.56000,      -2.31833
249.954,21.81667,      -2.42359
252.517,22.07333,      -2.53526
255.082,22.33000,      -2.65112
257.65,22.58667,      -2.77128
260.219,22.84333,      -2.89703
262.788,23.10000,      -3.02519
265.352,23.35667,      -3.15604
267.919,23.61333,      -3.28820
270.48,23.87000,      -3.42295
273.044,24.12667,      -3.55579
275.612,24.38333,      -3.68774
278.176,24.64000,      -3.81888
280.746,24.89667,      -3.95122
283.309,25.15333,      -4.07945
285.874,25.41000,      -4.20668
288.435,25.66667,      -4.33261
291.007,25.92333,      -4.45833
293.576,26.18000,      -4.58215
296.143,26.43667,      -4.70506
298.7,26.69333,      -4.82927
301.261,26.95000,      -4.95237
303.828,27.20667,      -5.07557
306.393,27.46333,      -5.20087
308.963,27.72000,      -5.33048
311.531,27.97667,      -5.46008
314.092,28.23333,      -5.59868
316.662,28.49000,      -5.73908
319.228,28.74667,      -5.88959
321.798,29.00333,      -6.04509
324.358,29.26000,      -6.20779
326.922,29.51667,      -6.37989
329.488,29.77333,      -6.55549
332.056,30.03000,      -6.73468
334.621,30.28667,      -6.91338
337.189,30.54333,      -7.09247
339.756,30.80000,      -7.26147
342.323,31.05667,      -7.42136
344.887,31.31333,      -7.56705
347.444,31.57000,      -7.70084
350.013,31.82667,      -7.81852
352.577,32.08333,      -7.92220
355.143,32.34000,      -8.01648
357.708,32.59667,      -8.10056
360.274,32.85333,      -8.17173
362.84,33.11000,      -8.24200
365.404,33.36667,      -8.32227
367.969,33.62333,      -8.38743
370.536,33.88000,      -8.45439
373.097,34.13667,      -8.52175
375.663,34.39333,      -8.58970
378.226,34.65000,      -8.65745
380.79,34.90667,      -8.73710
383.356,35.16333,      -8.80284
385.921,35.42000,      -8.86917
388.489,35.67667,      -8.93640
391.054,35.93333,      -9.00443
393.62,36.19000,      -9.08235
396.184,36.44667,      -9.14917
398.741,36.70333,      -9.21588
401.304,36.96000,      -9.28068
403.871,37.21667,      -9.34618
406.436,37.47333,      -9.40778
409.001,37.73000,      -9.47068
411.567,37.98667,      -9.53047
414.131,38.24333,      -9.58906
416.703,38.50000,      -9.64504
419.266,38.75667,      -9.69983
421.829,39.01333,      -9.75431
424.397,39.27000,      -9.80718
426.965,39.52667,      -9.85856
429.53,39.78333,      -9.90893
432.094,40.04000,      -9.95890
434.654,40.29667,     -10.00626
437.22,40.55333,     -10.05273
439.784,40.81000,     -10.09878
442.349,41.06667,     -10.14164
444.909,41.32333,     -10.18350
447.472,41.58000,     -10.22405
450.038,41.83667,     -10.26339
452.604,42.09333,     -10.30114
455.172,42.35000,     -10.33668
457.734,42.60667,     -10.37221
460.296,42.86333,     -10.40655
462.862,43.12000,     -10.43998
465.431,43.37667,     -10.47231
467.994,43.63333,     -10.50334
470.553,43.89000,     -10.53526
473.118,44.14667,     -10.56628
475.682,44.40333,     -10.59589
478.246,44.66000,     -10.62421
480.81,44.91667,     -10.65032
483.376,45.17333,     -10.67473
485.933,45.43000,     -10.69744
488.503,45.68667,     -10.71933
491.071,45.94333,     -10.73943
493.639,46.20000,     -10.75833
496.202,46.45667,     -10.77692
498.761,46.71333,     -10.79481
501.328,46.97000,     -10.81180
503.893,47.22667,     -10.82769
506.453,47.48333,     -10.84317
509.025,47.74000,     -10.85865
511.587,47.99667,     -10.87283
514.153,48.25333,     -10.88660
516.725,48.51000,     -10.90157
519.293,48.76667,     -10.91415
521.854,49.02333,     -10.92622
524.42,49.28000,     -10.93949
526.988,49.53667,     -10.95185
529.551,49.79333,     -10.96382
532.121,50.05000,     -10.97628
534.688,50.30667,     -10.98694
537.249,50.56333,     -10.99919
539.817,50.82000,     -11.01024
542.384,51.07667,     -11.02129
544.943,51.33333,     -11.03304
547.511,51.59000,     -11.04428
550.075,51.84667,     -11.05522
552.643,52.10333,     -11.06556
555.207,52.36000,     -11.07639
557.779,52.61667,     -11.08692
560.348,52.87333,     -11.09665
562.907,53.13000,     -11.10688
565.472,53.38667,     -11.11709
568.038,53.64333,     -11.12701
570.603,53.90000,     -11.13692
573.17,54.15667,     -11.14823
575.736,54.41333,     -11.15823
578.306,54.67000,     -11.16683
580.866,54.92667,     -11.17743
583.44,55.18333,     -11.18732
586.003,55.44000,     -11.19691
588.571,55.69667,     -11.20689
591.137,55.95333,     -11.21557
593.711,56.21000,     -11.22594
596.272,56.46667,     -11.23522
598.835,56.72333,     -11.24509
601.407,56.98000,     -11.25564
603.974,57.23667,     -11.26550
606.537,57.49333,     -11.27576
609.098,57.75000,     -11.28650
611.662,58.00667,     -11.29745
614.227,58.26333,     -11.30849
616.795,58.52000,     -11.31972
619.363,58.77667,     -11.33205
621.922,59.03333,     -11.34349
624.493,59.29000,     -11.35521
627.069,59.54667,     -11.36712
629.63,59.80333,     -11.37994
632.193,60.06000,     -11.39316
634.757,60.31667,     -11.40727
637.319,60.57333,     -11.41937
639.889,60.83000,     -11.43387
642.447,61.08667,     -11.44848
645.012,61.34333,     -11.46327
647.579,61.60000,     -11.47936
650.144,61.85667,     -11.49465
652.711,62.11333,     -11.50884
655.271,62.37000,     -11.52343
657.837,62.62667,     -11.53901
660.41,62.88333,     -11.55348
662.967,63.14000,     -11.56716
665.535,63.39667,     -11.58233
668.098,63.65333,     -11.59530
670.661,63.91000,     -11.60637
673.231,64.16667,     -11.61724
675.796,64.42333,     -11.62660
678.365,64.68000,     -11.63586
680.933,64.93667,     -11.64302
683.499,65.19333,     -11.65378
686.066,65.45000,     -11.66133
688.631,65.70667,     -11.66988
691.193,65.96333,     -11.67644
693.759,66.22000,     -11.68558
696.329,66.47667,     -11.69392
698.896,66.73333,     -11.70027
701.457,66.99000,     -11.70642
704.015,67.24667,     -11.71586
706.586,67.50333,     -11.72350
709.148,67.76000,     -11.73075
711.718,68.01667,     -11.73889
714.276,68.27333,     -11.74564
716.852,68.53000,     -11.75257
719.417,68.78667,     -11.75881
721.979,69.04333,     -11.76605
724.544,69.30000,     -11.77519
727.117,69.55667,     -11.78072
729.687,69.81333,     -11.78815
732.243,70.07000,     -11.79449
734.81,70.32667,     -11.80211
737.373,70.58333,     -11.80885
739.942,70.84000,     -11.81566
742.518,71.09667,     -11.82288
745.083,71.35333,     -11.82880
747.65,71.61000,     -11.83671
750.216,71.86667,     -11.84292
752.78,72.12333,     -11.84923
755.346,72.38000,     -11.85614
757.912,72.63667,     -11.86334
760.475,72.89333,     -11.86883
763.03,73.15000,     -11.87523
765.596,73.40667,     -11.88151
768.165,73.66333,     -11.88669
770.73,73.92000,     -11.89207
773.292,74.17667,     -11.89974
775.864,74.43333,     -11.90610
778.43,74.69000,     -11.90986
780.997,74.94667,     -11.91642
783.555,75.20333,     -11.92457
786.121,75.46000,     -11.92971
788.695,75.71667,     -11.93534
791.257,75.97333,     -11.94158
793.832,76.23000,     -11.94779
796.401,76.48667,     -11.95331
798.972,76.74333,     -11.95811
799.524,76.79833,     -11.95942