File: data-raw/TGA/C_TGA.csv
#EXPORTTYPE:                 ,DATA SINGLE
#FILE:                       ,C.ngb-st9
#FORMAT:                     ,NETZSCH5
#FTYPE:                      ,ANSI
#IDENTITY:                   ,Saras
#DECIMAL:                    ,POINT
#SEPARATOR:                  ,COMMA
#MTYPE:                      ,TG
#INSTRUMENT:                 ,NETZSCH TG 209F1 Libra
#PROJECT:                    ,IL
#DATE/TIME:                  ,10/03/2017 1:22:58 PM (UTC+11)
#CORR. FILE:                 ,
#TEMPCAL:                    ,TCALZERO.TCX
#LABORATORY:                 ,Capture Lab
#OPERATOR:                   ,NJN
#REMARK:                     ,Training run
#SAMPLE:                     ,C
#SAMPLE MASS /mg:            ,12.0878
#MATERIAL:                   ,KHCO3
#TYPE OF CRUCIBLE:           ,Al2O3
#SAMPLE CRUCIBLE MASS /mg:   ,310.9768
#REFERENCE CRUCIBLE MASS /mg:,
#M.RANGE /mg:                ,2000
#CORR. CODE:                 ,090
#RANGE:                      ,32°C/10.0(K/min)/800°C
#SEGMENT:                    ,S1/1
#SEG. 1:                     ,32°C/10.0(K/min)/800°C

##Temp./°C,Time/min,Mass loss/mg
 31.32300, 0.00000,-3.155927e-003
 32.50100, 0.25667,-6.239517e-003
 34.84300, 0.51333,-1.395795e-002
 37.87300, 0.77000,-2.718862e-002
 41.15500, 1.02667,-4.527027e-002
 44.34800, 1.28333,-6.593383e-002
 47.28400, 1.54000,-9.133387e-002
 49.96000, 1.79667,      -0.12035
 52.47700, 2.05333,      -0.15096
 54.93800, 2.31000,      -0.18399
 57.40400, 2.56667,      -0.21853
 59.91500, 2.82333,      -0.25294
 62.47300, 3.08000,      -0.28926
 65.06600, 3.33667,      -0.32548
 67.66600, 3.59333,      -0.36069
 70.26200, 3.85000,      -0.39574
 72.84600, 4.10667,      -0.42876
 75.41500, 4.36333,      -0.45993
 77.98500, 4.62000,      -0.48843
 80.55000, 4.87667,      -0.51524
 83.11500, 5.13333,      -0.53901
 85.68100, 5.39000,      -0.56101
 88.24700, 5.64667,      -0.57958
 90.82700, 5.90333,      -0.59649
 93.39900, 6.16000,      -0.61063
 95.96500, 6.41667,      -0.62387
 98.53800, 6.67333,      -0.63284
101.098, 6.93000,      -0.64273
103.666, 7.18667,      -0.64909
106.229, 7.44333,      -0.65561
108.793, 7.70000,      -0.66049
111.353, 7.95667,      -0.66525
113.914, 8.21333,      -0.66879
116.478, 8.47000,      -0.67240
119.048, 8.72667,      -0.67569
121.616, 8.98333,      -0.67844
124.183, 9.24000,      -0.68098
126.752, 9.49667,      -0.68278
129.319, 9.75333,      -0.68528
131.884,10.01000,      -0.68754
134.453,10.26667,      -0.68959
137.019,10.52333,      -0.69152
139.583,10.78000,      -0.69434
142.15,11.03667,      -0.69745
144.723,11.29333,      -0.70075
147.292,11.55000,      -0.70402
149.854,11.80667,      -0.70859
152.423,12.06333,      -0.71335
154.992,12.32000,      -0.71890
157.559,12.57667,      -0.72455
160.122,12.83333,      -0.73088
162.69,13.09000,      -0.73733
165.258,13.34667,      -0.74697
167.822,13.60333,      -0.75570
170.389,13.86000,      -0.76493
172.955,14.11667,      -0.77506
175.521,14.37333,      -0.78700
178.093,14.63000,      -0.79965
180.66,14.88667,      -0.81389
183.225,15.14333,      -0.83064
185.791,15.40000,      -0.84849
188.358,15.65667,      -0.86727
190.926,15.91333,      -0.88794
193.496,16.17000,      -0.91023
196.064,16.42667,      -0.93523
198.636,16.68333,      -0.95995
201.198,16.94000,      -0.98517
203.765,17.19667,      -1.01111
206.331,17.45333,      -1.03734
208.9,17.71000,      -1.06369
211.464,17.96667,      -1.09133
214.029,18.22333,      -1.12097
216.595,18.48000,      -1.15092
219.164,18.73667,      -1.18468
221.727,18.99333,      -1.22023
224.294,19.25000,      -1.25958
226.862,19.50667,      -1.30194
229.43,19.76333,      -1.34950
231.995,20.02000,      -1.40346
234.56,20.27667,      -1.46242
237.126,20.53333,      -1.53298
239.698,20.79000,      -1.61555
242.264,21.04667,      -1.70481
244.824,21.30333,      -1.79747
247.394,21.56000,      -1.89724
249.961,21.81667,      -2.00619
252.523,22.07333,      -2.12095
255.087,22.33000,      -2.24172
257.655,22.58667,      -2.36778
260.22,22.84333,      -2.49653
262.787,23.10000,      -2.62609
265.353,23.35667,      -2.75754
267.914,23.61333,      -2.88960
270.476,23.87000,      -3.01775
273.046,24.12667,      -3.14339
275.608,24.38333,      -3.26664
278.175,24.64000,      -3.38938
280.74,24.89667,      -3.50832
283.31,25.15333,      -3.62505
285.872,25.41000,      -3.74228
288.438,25.66667,      -3.85681
290.999,25.92333,      -3.97423
293.572,26.18000,      -4.09295
296.144,26.43667,      -4.21706
298.713,26.69333,      -4.34527
301.269,26.95000,      -4.48097
303.834,27.20667,      -4.62877
306.406,27.46333,      -4.78667
308.977,27.72000,      -4.96187
311.539,27.97667,      -5.15428
314.111,28.23333,      -5.37048
316.672,28.49000,      -5.60358
319.238,28.74667,      -5.85029
321.809,29.00333,      -6.10699
324.374,29.26000,      -6.35479
326.936,29.51667,      -6.58209
329.504,29.77333,      -6.77458
332.064,30.03000,      -6.93248
334.628,30.28667,      -7.05198
337.187,30.54333,      -7.14618
339.752,30.80000,      -7.21857
342.319,31.05667,      -7.27766
344.886,31.31333,      -7.33545
347.456,31.57000,      -7.38853
350.022,31.82667,      -7.43812
352.585,32.08333,      -7.48320
355.154,32.34000,      -7.52438
357.72,32.59667,      -7.56266
360.281,32.85333,      -7.60033
362.848,33.11000,      -7.63360
365.415,33.36667,      -7.66487
367.977,33.62333,      -7.69503
370.54,33.88000,      -7.72489
373.106,34.13667,      -7.75265
375.672,34.39333,      -7.77900
378.238,34.65000,      -7.80555
380.804,34.90667,      -7.83249
383.369,35.16333,      -7.85744
385.932,35.42000,      -7.88277
388.497,35.67667,      -7.90690
391.062,35.93333,      -7.93123
393.619,36.19000,      -7.95615
396.184,36.44667,      -7.97997
398.748,36.70333,      -8.00398
401.32,36.96000,      -8.02658
403.881,37.21667,      -8.04868
406.45,37.47333,      -8.07068
409.012,37.73000,      -8.09338
411.575,37.98667,      -8.11557
414.141,38.24333,      -8.13716
416.708,38.50000,      -8.15915
419.272,38.75667,      -8.17983
421.838,39.01333,      -8.20001
424.404,39.27000,      -8.22128
426.967,39.52667,      -8.24136
429.535,39.78333,      -8.26113
432.093,40.04000,      -8.28080
434.661,40.29667,      -8.30016
437.223,40.55333,      -8.31913
439.79,40.81000,      -8.33798
442.353,41.06667,      -8.35684
444.92,41.32333,      -8.37459
447.482,41.58000,      -8.39185
450.048,41.83667,      -8.40959
452.612,42.09333,      -8.42563
455.18,42.35000,      -8.44218
457.755,42.60667,      -8.45680
460.309,42.86333,      -8.47286
462.865,43.12000,      -8.48778
465.432,43.37667,      -8.50221
467.998,43.63333,      -8.51583
470.565,43.89000,      -8.52976
473.127,44.14667,      -8.54368
475.697,44.40333,      -8.55549
478.261,44.66000,      -8.56781
480.819,44.91667,      -8.57942
483.383,45.17333,      -8.59223
485.955,45.43000,      -8.60373
488.519,45.68667,      -8.61553
491.08,45.94333,      -8.62634
493.647,46.20000,      -8.63443
496.21,46.45667,      -8.64592
498.773,46.71333,      -8.65541
501.336,46.97000,      -8.66490
503.903,47.22667,      -8.67388
506.47,47.48333,      -8.68246
509.025,47.74000,      -8.69185
511.59,47.99667,      -8.70113
514.159,48.25333,      -8.70880
516.722,48.51000,      -8.71668
519.294,48.76667,      -8.72665
521.857,49.02333,      -8.73332
524.423,49.28000,      -8.73859
526.98,49.53667,      -8.74956
529.547,49.79333,      -8.75402
532.113,50.05000,      -8.76108
534.677,50.30667,      -8.76944
537.251,50.56333,      -8.77449
539.812,50.82000,      -8.77925
542.377,51.07667,      -8.78539
544.942,51.33333,      -8.79374
547.494,51.59000,      -8.80009
550.062,51.84667,      -8.80873
552.628,52.10333,      -8.81296
555.191,52.36000,      -8.81910
557.759,52.61667,      -8.82313
560.33,52.87333,      -8.82935
562.891,53.13000,      -8.83468
565.461,53.38667,      -8.83989
568.024,53.64333,      -8.84481
570.588,53.90000,      -8.85072
573.156,54.15667,      -8.85613
575.725,54.41333,      -8.86024
578.289,54.67000,      -8.86544
580.857,54.92667,      -8.86933
583.418,55.18333,      -8.87323
585.994,55.44000,      -8.87991
588.557,55.69667,      -8.88450
591.127,55.95333,      -8.88678
593.694,56.21000,      -8.89075
596.269,56.46667,      -8.89351
598.829,56.72333,      -8.89849
601.39,56.98000,      -8.90325
603.957,57.23667,      -8.90660
606.527,57.49333,      -8.91095
609.103,57.75000,      -8.91420
611.665,58.00667,      -8.91995
614.229,58.26333,      -8.92349
616.802,58.52000,      -8.92672
619.367,58.77667,      -8.93115
621.931,59.03333,      -8.93438
624.498,59.29000,      -8.93711
627.067,59.54667,      -8.94222
629.634,59.80333,      -8.94434
632.2,60.06000,      -8.94825
634.764,60.31667,      -8.95286
637.324,60.57333,      -8.95577
639.889,60.83000,      -8.95877
642.448,61.08667,      -8.96328
645.015,61.34333,      -8.96627
647.581,61.60000,      -8.96916
650.149,61.85667,      -8.97185
652.719,62.11333,      -8.97514
655.285,62.37000,      -8.97842
657.836,62.62667,      -8.98221
660.406,62.88333,      -8.98458
662.975,63.14000,      -8.98756
665.54,63.39667,      -8.98983
668.102,63.65333,      -8.99230
670.665,63.91000,      -8.99507
673.229,64.16667,      -8.99874
675.797,64.42333,      -9.00200
678.362,64.68000,      -9.00636
680.928,64.93667,      -9.00942
683.487,65.19333,      -9.01248
686.073,65.45000,      -9.01502
688.641,65.70667,      -9.01688
691.202,65.96333,      -9.01863
693.766,66.22000,      -9.02218
696.334,66.47667,      -9.02402
698.895,66.73333,      -9.02777
701.469,66.99000,      -9.02871
704.029,67.24667,      -9.03166
706.594,67.50333,      -9.03540
709.163,67.76000,      -9.03844
711.729,68.01667,      -9.04069
714.294,68.27333,      -9.04273
716.862,68.53000,      -9.04657
719.432,68.78667,      -9.04891
721.998,69.04333,      -9.05155
724.563,69.30000,      -9.05458
727.131,69.55667,      -9.05742
729.692,69.81333,      -9.05935
732.259,70.07000,      -9.06238
734.821,70.32667,      -9.06581
737.386,70.58333,      -9.06924
739.946,70.84000,      -9.07227
742.515,71.09667,      -9.07398
745.091,71.35333,      -9.07770
747.656,71.61000,      -9.08091
750.223,71.86667,      -9.08402
752.785,72.12333,      -9.08653
755.35,72.38000,      -9.08744
757.911,72.63667,      -9.08924
760.475,72.89333,      -9.09413
763.039,73.15000,      -9.09712
765.603,73.40667,      -9.10061
768.167,73.66333,      -9.10469
770.737,73.92000,      -9.10586
773.306,74.17667,      -9.10864
775.869,74.43333,      -9.11140
778.433,74.69000,      -9.11456
780.999,74.94667,      -9.11822
783.569,75.20333,      -9.11986
786.135,75.46000,      -9.12401
788.703,75.71667,      -9.12754
791.274,75.97333,      -9.13037
793.843,76.23000,      -9.13329
796.413,76.48667,      -9.13730
798.977,76.74333,      -9.14051
799.523,76.79833,      -9.14132