File: data-raw/TGA/DD_TGA.csv
#EXPORTTYPE:                 ,DATA SINGLE
#FILE:                       ,DD.ngb-st9
#FORMAT:                     ,NETZSCH5
#FTYPE:                      ,ANSI
#IDENTITY:                   ,Saras
#DECIMAL:                    ,POINT
#SEPARATOR:                  ,COMMA
#MTYPE:                      ,TG
#INSTRUMENT:                 ,NETZSCH TG 209F1 Libra
#PROJECT:                    ,IL
#DATE/TIME:                  ,13/03/2017 2:11:08 PM (UTC+11)
#CORR. FILE:                 ,
#TEMPCAL:                    ,TCALZERO.TCX
#LABORATORY:                 ,Capture Lab
#OPERATOR:                   ,NJN
#REMARK:                     ,Training run
#SAMPLE:                     ,DD
#SAMPLE MASS /mg:            ,16.6699
#MATERIAL:                   ,KHCO3
#TYPE OF CRUCIBLE:           ,Al2O3
#SAMPLE CRUCIBLE MASS /mg:   ,311.7529
#REFERENCE CRUCIBLE MASS /mg:,
#M.RANGE /mg:                ,2000
#CORR. CODE:                 ,090
#RANGE:                      ,32°C/10.0(K/min)/800°C
#SEGMENT:                    ,S1/1
#SEG. 1:                     ,32°C/10.0(K/min)/800°C

##Temp./°C,Time/min,Mass loss/mg
 31.50900, 0.00000,-1.310501e-003
 32.65300, 0.25667,-7.813027e-003
 34.94500, 0.51333,-1.811383e-002
 37.91000, 0.77000,-3.480686e-002
 41.14300, 1.02667,-5.426598e-002
 44.30800, 1.28333,-7.913663e-002
 47.24500, 1.54000,      -0.10925
 49.93900, 1.79667,      -0.14322
 52.47100, 2.05333,      -0.18072
 54.93500, 2.31000,      -0.22081
 57.41400, 2.56667,      -0.26406
 59.92800, 2.82333,      -0.30877
 62.48100, 3.08000,      -0.35664
 65.06500, 3.33667,      -0.40566
 67.65900, 3.59333,      -0.45587
 70.25400, 3.85000,      -0.50561
 72.84000, 4.10667,      -0.55385
 75.41500, 4.36333,      -0.60014
 77.98500, 4.62000,      -0.64333
 80.56100, 4.87667,      -0.68355
 83.13000, 5.13333,      -0.72083
 85.69700, 5.39000,      -0.75550
 88.27100, 5.64667,      -0.78639
 90.84500, 5.90333,      -0.81396
 93.41400, 6.16000,      -0.83892
 95.98500, 6.41667,      -0.86017
 98.54800, 6.67333,      -0.87862
101.114, 6.93000,      -0.89463
103.676, 7.18667,      -0.90968
106.242, 7.44333,      -0.92121
108.804, 7.70000,      -0.93199
111.37, 7.95667,      -0.94016
113.929, 8.21333,      -0.94668
116.494, 8.47000,      -0.95359
119.063, 8.72667,      -0.95998
121.622, 8.98333,      -0.96654
124.193, 9.24000,      -0.97268
126.757, 9.49667,      -0.97898
129.317, 9.75333,      -0.98576
131.887,10.01000,      -0.99554
134.45,10.26667,      -1.00278
137.026,10.52333,      -1.01263
139.594,10.78000,      -1.02385
142.162,11.03667,      -1.03356
144.733,11.29333,      -1.04585
147.297,11.55000,      -1.06272
149.865,11.80667,      -1.07819
152.431,12.06333,      -1.09685
154.994,12.32000,      -1.11770
157.566,12.57667,      -1.13835
160.128,12.83333,      -1.16179
162.692,13.09000,      -1.18622
165.256,13.34667,      -1.21156
167.827,13.60333,      -1.23740
170.399,13.86000,      -1.26273
172.964,14.11667,      -1.28786
175.532,14.37333,      -1.31440
178.101,14.63000,      -1.34014
180.668,14.88667,      -1.36738
183.231,15.14333,      -1.39324
185.799,15.40000,      -1.42199
188.368,15.65667,      -1.45166
190.936,15.91333,      -1.48234
193.506,16.17000,      -1.51243
196.075,16.42667,      -1.54663
198.637,16.68333,      -1.58114
201.206,16.94000,      -1.61407
203.771,17.19667,      -1.64940
206.334,17.45333,      -1.68584
208.902,17.71000,      -1.72478
211.469,17.96667,      -1.76323
214.034,18.22333,      -1.80427
216.598,18.48000,      -1.84752
219.169,18.73667,      -1.89208
221.735,18.99333,      -1.94223
224.306,19.25000,      -1.99709
226.868,19.50667,      -2.05364
229.437,19.76333,      -2.13160
232.003,20.02000,      -2.19666
234.571,20.27667,      -2.26732
237.134,20.53333,      -2.35918
239.699,20.79000,      -2.44754
242.263,21.04667,      -2.54591
244.828,21.30333,      -2.64757
247.4,21.56000,      -2.75673
249.967,21.81667,      -2.87459
252.536,22.07333,      -2.99396
255.092,22.33000,      -3.12221
257.667,22.58667,      -3.24738
260.229,22.84333,      -3.38373
262.794,23.10000,      -3.51469
265.36,23.35667,      -3.64864
267.926,23.61333,      -3.78030
270.491,23.87000,      -3.91664
273.049,24.12667,      -4.04869
275.617,24.38333,      -4.17974
278.175,24.64000,      -4.31348
280.743,24.89667,      -4.44452
283.31,25.15333,      -4.57475
285.878,25.41000,      -4.70608
288.444,25.66667,      -4.84091
291.016,25.92333,      -4.97453
293.584,26.18000,      -5.11015
296.141,26.43667,      -5.25196
298.705,26.69333,      -5.39857
301.272,26.95000,      -5.55027
303.84,27.20667,      -5.71267
306.401,27.46333,      -5.89207
308.973,27.72000,      -6.08408
311.542,27.97667,      -6.29858
314.111,28.23333,      -6.53678
316.678,28.49000,      -6.81058
319.253,28.74667,      -7.11288
321.814,29.00333,      -7.44449
324.382,29.26000,      -7.79099
326.939,29.51667,      -8.12869
329.505,29.77333,      -8.43009
332.064,30.03000,      -8.67868
334.62,30.28667,      -8.87088
337.179,30.54333,      -9.01228
339.74,30.80000,      -9.12147
342.312,31.05667,      -9.20816
344.88,31.31333,      -9.27675
347.45,31.57000,      -9.35743
350.012,31.82667,      -9.41202
352.581,32.08333,      -9.47680
355.141,32.34000,      -9.53638
357.713,32.59667,      -9.59326
360.285,32.85333,      -9.65073
362.847,33.11000,      -9.70440
365.407,33.36667,      -9.76047
367.972,33.62333,      -9.81083
370.539,33.88000,      -9.86309
373.105,34.13667,      -9.91355
375.669,34.39333,      -9.96290
378.233,34.65000,     -10.01205
380.797,34.90667,     -10.06090
383.365,35.16333,     -10.10884
385.928,35.42000,     -10.15647
388.484,35.67667,     -10.20851
391.053,35.93333,     -10.25043
393.617,36.19000,     -10.29705
396.185,36.44667,     -10.34176
398.752,36.70333,     -10.38678
401.313,36.96000,     -10.43238
403.879,37.21667,     -10.47668
406.445,37.47333,     -10.51918
409.01,37.73000,     -10.56338
411.575,37.98667,     -10.60697
414.144,38.24333,     -10.64606
416.707,38.50000,     -10.68714
419.276,38.75667,     -10.72753
421.845,39.01333,     -10.76770
424.405,39.27000,     -10.80599
426.964,39.52667,     -10.84526
429.528,39.78333,     -10.88363
432.091,40.04000,     -10.91960
434.659,40.29667,     -10.95516
437.227,40.55333,     -10.99112
439.791,40.81000,     -11.02469
442.351,41.06667,     -11.05944
444.919,41.32333,     -11.09100
447.481,41.58000,     -11.12424
450.05,41.83667,     -11.15579
452.613,42.09333,     -11.18414
455.175,42.35000,     -11.21258
457.739,42.60667,     -11.24061
460.309,42.86333,     -11.26475
462.875,43.12000,     -11.29178
465.439,43.37667,     -11.31671
467.998,43.63333,     -11.34184
470.564,43.89000,     -11.36306
473.126,44.14667,     -11.38578
475.69,44.40333,     -11.40539
478.254,44.66000,     -11.42721
480.82,44.91667,     -11.44692
483.382,45.17333,     -11.46583
485.947,45.43000,     -11.48543
488.513,45.68667,     -11.50133
491.074,45.94333,     -11.52144
493.646,46.20000,     -11.53762
496.204,46.45667,     -11.55582
498.772,46.71333,     -11.56911
501.331,46.97000,     -11.58230
503.892,47.22667,     -11.59839
506.459,47.48333,     -11.61117
509.032,47.74000,     -11.62335
511.593,47.99667,     -11.63703
514.148,48.25333,     -11.65021
516.72,48.51000,     -11.66148
519.284,48.76667,     -11.67326
521.842,49.02333,     -11.68653
524.409,49.28000,     -11.69619
526.975,49.53667,     -11.70646
529.54,49.79333,     -11.71702
532.103,50.05000,     -11.72808
534.673,50.30667,     -11.73794
537.233,50.56333,     -11.74880
539.794,50.82000,     -11.75885
542.355,51.07667,     -11.76570
544.926,51.33333,     -11.77664
547.486,51.59000,     -11.78349
550.052,51.84667,     -11.79273
552.618,52.10333,     -11.80166
555.186,52.36000,     -11.81090
557.756,52.61667,     -11.81822
560.324,52.87333,     -11.82575
562.885,53.13000,     -11.83558
565.453,53.38667,     -11.84270
568.017,53.64333,     -11.84992
570.576,53.90000,     -11.85993
573.147,54.15667,     -11.86873
575.716,54.41333,     -11.87344
578.278,54.67000,     -11.88364
580.852,54.92667,     -11.88903
583.414,55.18333,     -11.89783
585.974,55.44000,     -11.90422
588.548,55.69667,     -11.91320
591.116,55.95333,     -11.91798
593.683,56.21000,     -11.92365
596.247,56.46667,     -11.93193
598.815,56.72333,     -11.93889
601.378,56.98000,     -11.94495
603.946,57.23667,     -11.95031
606.508,57.49333,     -11.95646
609.077,57.75000,     -11.96261
611.638,58.00667,     -11.96836
614.211,58.26333,     -11.97339
616.764,58.52000,     -11.98214
619.339,58.77667,     -11.98566
621.906,59.03333,     -11.99139
624.471,59.29000,     -11.99621
627.033,59.54667,     -12.00283
629.608,59.80333,     -12.01025
632.17,60.06000,     -12.01466
634.736,60.31667,     -12.01977
637.3,60.57333,     -12.02518
639.867,60.83000,     -12.03008
642.432,61.08667,     -12.03778
644.994,61.34333,     -12.04248
647.559,61.60000,     -12.04707
650.127,61.85667,     -12.05236
652.694,62.11333,     -12.05694
655.257,62.37000,     -12.06483
657.819,62.62667,     -12.06921
660.389,62.88333,     -12.07299
662.958,63.14000,     -12.08076
665.524,63.39667,     -12.08334
668.085,63.65333,     -12.08881
670.649,63.91000,     -12.09438
673.218,64.16667,     -12.09874
675.784,64.42333,     -12.10400
678.353,64.68000,     -12.10956
680.916,64.93667,     -12.11452
683.489,65.19333,     -12.12027
686.05,65.45000,     -12.12384
688.619,65.70667,     -12.12868
691.18,65.96333,     -12.13514
693.75,66.22000,     -12.13858
696.317,66.47667,     -12.14403
698.881,66.73333,     -12.14968
701.448,66.99000,     -12.15492
704.017,67.24667,     -12.15926
706.582,67.50333,     -12.16441
709.156,67.76000,     -12.16984
711.722,68.01667,     -12.17389
714.293,68.27333,     -12.17783
716.853,68.53000,     -12.18277
719.422,68.78667,     -12.18851
721.986,69.04333,     -12.19425
724.554,69.30000,     -12.19848
727.129,69.55667,     -12.20222
729.681,69.81333,     -12.20716
732.247,70.07000,     -12.21419
734.805,70.32667,     -12.21812
737.375,70.58333,     -12.22244
739.946,70.84000,     -12.22756
742.512,71.09667,     -12.23288
745.082,71.35333,     -12.23700
747.645,71.61000,     -12.24332
750.21,71.86667,     -12.24743
752.776,72.12333,     -12.25253
755.341,72.38000,     -12.25594
757.906,72.63667,     -12.25984
760.469,72.89333,     -12.26403
763.027,73.15000,     -12.27153
765.597,73.40667,     -12.27501
768.164,73.66333,     -12.27759
770.727,73.92000,     -12.28277
773.297,74.17667,     -12.28724
775.862,74.43333,     -12.29231
778.434,74.69000,     -12.29596
780.999,74.94667,     -12.30062
783.562,75.20333,     -12.30437
786.131,75.46000,     -12.30791
788.701,75.71667,     -12.31254
791.27,75.97333,     -12.31627
793.838,76.23000,     -12.32129
796.411,76.48667,     -12.32480
798.958,76.74333,     -12.32952
799.378,76.78500,     -12.33037