File: data-raw/TGA/FF_TGA.csv
#EXPORTTYPE:                 ,DATA SINGLE
#FILE:                       ,FF.ngb-st9
#FORMAT:                     ,NETZSCH5
#FTYPE:                      ,ANSI
#IDENTITY:                   ,Saras
#DECIMAL:                    ,POINT
#SEPARATOR:                  ,COMMA
#MTYPE:                      ,TG
#INSTRUMENT:                 ,NETZSCH TG 209F1 Libra
#PROJECT:                    ,IL
#DATE/TIME:                  ,16/03/2017 9:48:43 AM (UTC+11)
#CORR. FILE:                 ,
#TEMPCAL:                    ,TCALZERO.TCX
#LABORATORY:                 ,Capture Lab
#OPERATOR:                   ,NJN
#REMARK:                     ,Training run
#SAMPLE:                     ,FF
#SAMPLE MASS /mg:            ,12.2350
#MATERIAL:                   ,KHCO3
#TYPE OF CRUCIBLE:           ,Al2O3
#SAMPLE CRUCIBLE MASS /mg:   ,311.9641
#REFERENCE CRUCIBLE MASS /mg:,
#M.RANGE /mg:                ,2000
#CORR. CODE:                 ,090
#RANGE:                      ,32°C/10.0(K/min)/800°C
#SEGMENT:                    ,S1/1
#SEG. 1:                     ,32°C/10.0(K/min)/800°C

##Temp./°C,Time/min,Mass loss/mg
 31.90200, 0.00000,-2.037716e-003
 32.97000, 0.25667, 1.433278e-004
 35.09700, 0.51333,-8.838618e-004
 37.91500, 0.77000,-2.751928e-003
 41.07100, 1.02667,-4.945812e-003
 44.22900, 1.28333,-1.080800e-002
 47.18800, 1.54000,-1.935419e-002
 49.91800, 1.79667,-2.895511e-002
 52.47200, 2.05333,-4.251623e-002
 54.94300, 2.31000,-5.613089e-002
 57.41500, 2.56667,-6.993764e-002
 59.91700, 2.82333,-8.661790e-002
 62.46500, 3.08000,      -0.10472
 65.04600, 3.33667,      -0.12374
 67.63900, 3.59333,      -0.14376
 70.23000, 3.85000,      -0.16491
 72.81100, 4.10667,      -0.18692
 75.38300, 4.36333,      -0.20813
 77.95400, 4.62000,      -0.22793
 80.52200, 4.87667,      -0.24774
 83.09200, 5.13333,      -0.26673
 85.65600, 5.39000,      -0.28471
 88.23900, 5.64667,      -0.30013
 90.80900, 5.90333,      -0.31455
 93.37900, 6.16000,      -0.32813
 95.95000, 6.41667,      -0.33927
 98.51900, 6.67333,      -0.34913
101.092, 6.93000,      -0.35805
103.654, 7.18667,      -0.36578
106.221, 7.44333,      -0.37201
108.782, 7.70000,      -0.37769
111.341, 7.95667,      -0.38375
113.908, 8.21333,      -0.38920
116.477, 8.47000,      -0.39292
119.041, 8.72667,      -0.39648
121.604, 8.98333,      -0.40173
124.173, 9.24000,      -0.40637
126.739, 9.49667,      -0.41018
129.307, 9.75333,      -0.41477
131.874,10.01000,      -0.41984
134.438,10.26667,      -0.42569
137.006,10.52333,      -0.43293
139.579,10.78000,      -0.44015
142.15,11.03667,      -0.44815
144.718,11.29333,      -0.45735
147.288,11.55000,      -0.46903
149.851,11.80667,      -0.48069
152.416,12.06333,      -0.49345
154.985,12.32000,      -0.50780
157.548,12.57667,      -0.52365
160.115,12.83333,      -0.54090
162.684,13.09000,      -0.55774
165.252,13.34667,      -0.57466
167.819,13.60333,      -0.59080
170.384,13.86000,      -0.60853
172.951,14.11667,      -0.62457
175.516,14.37333,      -0.64190
178.087,14.63000,      -0.65924
180.654,14.88667,      -0.67639
183.223,15.14333,      -0.69514
185.794,15.40000,      -0.71420
188.357,15.65667,      -0.73336
190.92,15.91333,      -0.75484
193.485,16.17000,      -0.77733
196.052,16.42667,      -0.80023
198.622,16.68333,      -0.82445
201.192,16.94000,      -0.85038
203.759,17.19667,      -0.87781
206.325,17.45333,      -0.90644
208.89,17.71000,      -0.93518
211.457,17.96667,      -0.96543
214.029,18.22333,      -0.99717
216.597,18.48000,      -1.03013
219.162,18.73667,      -1.06537
221.727,18.99333,      -1.10383
224.291,19.25000,      -1.14328
226.857,19.50667,      -1.18704
229.422,19.76333,      -1.23520
231.994,20.02000,      -1.28846
234.558,20.27667,      -1.34632
237.124,20.53333,      -1.40998
239.688,20.79000,      -1.49415
242.259,21.04667,      -1.56461
244.821,21.30333,      -1.65787
247.388,21.56000,      -1.74493
249.953,21.81667,      -1.83979
252.517,22.07333,      -1.93666
255.085,22.33000,      -2.03672
257.646,22.58667,      -2.14047
260.213,22.84333,      -2.24743
262.779,23.10000,      -2.35319
265.343,23.35667,      -2.45954
267.909,23.61333,      -2.56810
270.478,23.87000,      -2.67445
273.042,24.12667,      -2.77919
275.607,24.38333,      -2.88494
278.173,24.64000,      -2.98878
280.741,24.89667,      -3.09232
283.309,25.15333,      -3.19545
285.872,25.41000,      -3.29878
288.463,25.66667,      -3.40461
291,25.92333,      -3.51163
293.558,26.18000,      -3.62155
296.128,26.43667,      -3.73776
298.696,26.69333,      -3.85777
301.265,26.95000,      -3.98647
303.831,27.20667,      -4.12517
306.393,27.46333,      -4.27617
308.961,27.72000,      -4.43968
311.526,27.97667,      -4.61758
314.094,28.23333,      -4.80858
316.667,28.49000,      -5.01198
319.226,28.74667,      -5.21949
321.802,29.00333,      -5.42558
324.36,29.26000,      -5.62399
326.923,29.51667,      -5.80199
329.487,29.77333,      -5.95399
332.05,30.03000,      -6.07699
334.611,30.28667,      -6.17368
337.172,30.54333,      -6.23728
339.742,30.80000,      -6.30027
342.311,31.05667,      -6.35336
344.885,31.31333,      -6.40105
347.443,31.57000,      -6.44384
350.01,31.82667,      -6.48472
352.573,32.08333,      -6.52260
355.135,32.34000,      -6.55778
357.701,32.59667,      -6.59246
360.265,32.85333,      -6.62593
362.833,33.11000,      -6.65820
365.402,33.36667,      -6.68897
367.962,33.62333,      -6.71874
370.524,33.88000,      -6.74759
373.087,34.13667,      -6.77595
375.655,34.39333,      -6.80400
378.221,34.65000,      -6.83015
380.785,34.90667,      -6.85700
383.355,35.16333,      -6.88264
385.925,35.42000,      -6.90767
388.491,35.67667,      -6.93180
391.043,35.93333,      -6.95723
393.608,36.19000,      -6.98055
396.178,36.44667,      -7.00407
398.734,36.70333,      -7.02758
401.297,36.96000,      -7.05078
403.863,37.21667,      -7.07278
406.43,37.47333,      -7.09548
408.997,37.73000,      -7.11778
411.553,37.98667,      -7.13928
414.118,38.24333,      -7.15946
416.685,38.50000,      -7.18105
419.253,38.75667,      -7.20063
421.822,39.01333,      -7.22101
424.387,39.27000,      -7.24029
426.949,39.52667,      -7.26026
429.516,39.78333,      -7.27973
432.083,40.04000,      -7.29870
434.648,40.29667,      -7.31687
437.21,40.55333,      -7.33483
439.778,40.81000,      -7.35269
442.34,41.06667,      -7.37105
444.905,41.32333,      -7.38720
447.465,41.58000,      -7.40415
450.03,41.83667,      -7.42039
452.596,42.09333,      -7.43624
455.156,42.35000,      -7.45278
457.721,42.60667,      -7.46802
460.295,42.86333,      -7.48395
462.859,43.12000,      -7.49828
465.422,43.37667,      -7.51311
467.99,43.63333,      -7.52854
470.56,43.89000,      -7.54055
473.119,44.14667,      -7.55548
475.684,44.40333,      -7.56860
478.249,44.66000,      -7.58151
480.811,44.91667,      -7.59552
483.374,45.17333,      -7.60813
485.94,45.43000,      -7.62063
488.503,45.68667,      -7.63504
491.067,45.94333,      -7.64743
493.633,46.20000,      -7.65703
496.208,46.45667,      -7.66772
498.765,46.71333,      -7.68022
501.327,46.97000,      -7.69320
503.894,47.22667,      -7.70508
506.461,47.48333,      -7.71486
509.033,47.74000,      -7.72614
511.593,47.99667,      -7.73713
514.163,48.25333,      -7.74750
516.72,48.51000,      -7.75798
519.286,48.76667,      -7.76835
521.861,49.02333,      -7.77952
524.427,49.28000,      -7.79049
526.993,49.53667,      -7.80085
529.562,49.79333,      -7.81032
532.126,50.05000,      -7.82087
534.688,50.30667,      -7.83014
537.257,50.56333,      -7.83909
539.818,50.82000,      -7.84924
542.385,51.07667,      -7.85949
544.95,51.33333,      -7.87004
547.516,51.59000,      -7.87738
550.08,51.84667,      -7.88722
552.648,52.10333,      -7.89626
555.215,52.36000,      -7.90439
557.782,52.61667,      -7.91302
560.352,52.87333,      -7.92295
562.914,53.13000,      -7.92947
565.483,53.38667,      -7.93939
568.051,53.64333,      -7.94591
570.612,53.90000,      -7.95582
573.178,54.15667,      -7.96473
575.751,54.41333,      -7.97063
578.316,54.67000,      -7.97863
580.883,54.92667,      -7.98743
583.442,55.18333,      -7.99392
586.007,55.44000,      -8.00261
588.581,55.69667,      -8.00819
591.144,55.95333,      -8.01637
593.71,56.21000,      -8.02295
596.284,56.46667,      -8.03111
598.847,56.72333,      -8.03768
601.408,56.98000,      -8.04455
603.981,57.23667,      -8.05240
606.542,57.49333,      -8.05895
609.107,57.75000,      -8.06590
611.669,58.00667,      -8.07275
614.238,58.26333,      -8.07908
616.807,58.52000,      -8.08582
619.371,58.77667,      -8.09215
621.938,59.03333,      -8.09978
624.506,59.29000,      -8.10510
627.069,59.54667,      -8.11213
629.627,59.80333,      -8.11794
632.191,60.06000,      -8.12496
634.756,60.31667,      -8.13107
637.322,60.57333,      -8.13687
639.891,60.83000,      -8.14077
642.458,61.08667,      -8.14968
645.018,61.34333,      -8.15537
647.585,61.60000,      -8.16086
650.148,61.85667,      -8.16586
652.71,62.11333,      -8.17144
655.276,62.37000,      -8.17773
657.841,62.62667,      -8.18280
660.41,62.88333,      -8.18928
662.971,63.14000,      -8.19506
665.536,63.39667,      -8.20133
668.106,63.65333,      -8.20500
670.661,63.91000,      -8.21078
673.229,64.16667,      -8.21684
675.79,64.42333,      -8.22090
678.357,64.68000,      -8.22656
680.926,64.93667,      -8.23232
683.49,65.19333,      -8.23808
686.05,65.45000,      -8.24264
688.618,65.70667,      -8.24808
691.19,65.96333,      -8.25383
693.755,66.22000,      -8.25938
696.325,66.47667,      -8.26463
698.892,66.73333,      -8.26967
701.455,66.99000,      -8.27712
704.025,67.24667,      -8.28146
706.591,67.50333,      -8.28590
709.162,67.76000,      -8.29094
711.714,68.01667,      -8.29579
714.282,68.27333,      -8.30383
716.849,68.53000,      -8.30787
719.421,68.78667,      -8.31301
721.984,69.04333,      -8.31975
724.548,69.30000,      -8.32289
727.11,69.55667,      -8.33072
729.68,69.81333,      -8.33575
732.25,70.07000,      -8.33998
734.816,70.32667,      -8.34501
737.375,70.58333,      -8.35244
739.938,70.84000,      -8.35767
742.508,71.09667,      -8.36288
745.072,71.35333,      -8.36860
747.636,71.61000,      -8.37442
750.207,71.86667,      -8.38033
752.774,72.12333,      -8.38993
755.343,72.38000,      -8.39444
757.91,72.63667,      -8.39984
760.477,72.89333,      -8.40613
763.033,73.15000,      -8.41403
765.609,73.40667,      -8.41970
768.17,73.66333,      -8.42449
770.736,73.92000,      -8.43077
773.301,74.17667,      -8.43854
775.865,74.43333,      -8.44391
778.431,74.69000,      -8.45016
780.997,74.94667,      -8.45592
783.571,75.20333,      -8.46496
786.136,75.46000,      -8.47050
788.704,75.71667,      -8.47784
791.273,75.97333,      -8.48457
793.837,76.23000,      -8.49439
796.407,76.48667,      -8.50031
798.982,76.74333,      -8.50741
799.532,76.79833,      -8.50972