File: data-raw/TGA/H_TGA.csv
#EXPORTTYPE:                 ,DATA SINGLE
#FILE:                       ,H.ngb-st9
#FORMAT:                     ,NETZSCH5
#FTYPE:                      ,ANSI
#IDENTITY:                   ,Saras
#DECIMAL:                    ,POINT
#SEPARATOR:                  ,COMMA
#MTYPE:                      ,TG
#INSTRUMENT:                 ,NETZSCH TG 209F1 Libra
#PROJECT:                    ,IL
#DATE/TIME:                  ,16/03/2017 2:18:03 PM (UTC+11)
#CORR. FILE:                 ,
#TEMPCAL:                    ,TCALZERO.TCX
#LABORATORY:                 ,Capture Lab
#OPERATOR:                   ,NJN
#REMARK:                     ,Training run
#SAMPLE:                     ,H
#SAMPLE MASS /mg:            ,15.2905
#MATERIAL:                   ,KHCO3
#TYPE OF CRUCIBLE:           ,Al2O3
#SAMPLE CRUCIBLE MASS /mg:   ,311.9764
#REFERENCE CRUCIBLE MASS /mg:,
#M.RANGE /mg:                ,2000
#CORR. CODE:                 ,090
#RANGE:                      ,32°C/10.0(K/min)/800°C
#SEGMENT:                    ,S1/1
#SEG. 1:                     ,32°C/10.0(K/min)/800°C

##Temp./°C,Time/min,Mass loss/mg
 31.50100, 0.00000,-1.871769e-003
 32.63200, 0.25667,-6.204907e-003
 34.89900, 0.51333,-1.542311e-002
 37.85800, 0.77000,-3.138748e-002
 41.10600, 1.02667,-5.110875e-002
 44.28400, 1.28333,-7.499933e-002
 47.23800, 1.54000,      -0.10451
 49.93900, 1.79667,      -0.13954
 52.46500, 2.05333,      -0.17772
 54.92600, 2.31000,      -0.21919
 57.39400, 2.56667,      -0.26343
 59.90700, 2.82333,      -0.31116
 62.46400, 3.08000,      -0.35995
 65.05100, 3.33667,      -0.41065
 67.64400, 3.59333,      -0.46285
 70.22700, 3.85000,      -0.51469
 72.82100, 4.10667,      -0.56537
 75.39700, 4.36333,      -0.61395
 77.98200, 4.62000,      -0.65947
 80.54900, 4.87667,      -0.70323
 83.11700, 5.13333,      -0.74333
 85.68300, 5.39000,      -0.78050
 88.25000, 5.64667,      -0.81528
 90.82300, 5.90333,      -0.84617
 93.39200, 6.16000,      -0.87482
 95.96300, 6.41667,      -0.89988
 98.53500, 6.67333,      -0.92224
101.101, 6.93000,      -0.94184
103.665, 7.18667,      -0.96058
106.226, 7.44333,      -0.97530
108.787, 7.70000,      -0.98939
111.356, 7.95667,      -1.00077
113.92, 8.21333,      -1.01160
116.483, 8.47000,      -1.01910
119.046, 8.72667,      -1.02628
121.611, 8.98333,      -1.03264
124.179, 9.24000,      -1.03868
126.746, 9.49667,      -1.04488
129.309, 9.75333,      -1.05327
131.876,10.01000,      -1.05944
134.441,10.26667,      -1.06559
137.009,10.52333,      -1.07663
139.574,10.78000,      -1.08564
142.146,11.03667,      -1.09876
144.718,11.29333,      -1.11255
147.289,11.55000,      -1.12873
149.851,11.80667,      -1.14648
152.416,12.06333,      -1.16705
154.98,12.32000,      -1.18840
157.554,12.57667,      -1.21495
160.116,12.83333,      -1.24149
162.69,13.09000,      -1.26824
165.249,13.34667,      -1.29786
167.814,13.60333,      -1.32750
170.38,13.86000,      -1.36223
172.943,14.11667,      -1.39827
175.515,14.37333,      -1.43731
178.086,14.63000,      -1.47685
180.652,14.88667,      -1.52359
183.22,15.14333,      -1.57214
185.789,15.40000,      -1.62240
188.356,15.65667,      -1.67216
190.921,15.91333,      -1.72584
193.488,16.17000,      -1.77733
196.056,16.42667,      -1.83163
198.628,16.68333,      -1.88084
201.191,16.94000,      -1.93127
203.758,17.19667,      -1.98020
206.324,17.45333,      -2.02855
208.884,17.71000,      -2.07698
211.454,17.96667,      -2.12473
214.019,18.22333,      -2.17348
216.588,18.48000,      -2.22372
219.155,18.73667,      -2.27217
221.725,18.99333,      -2.32263
224.291,19.25000,      -2.37528
226.856,19.50667,      -2.42744
229.418,19.76333,      -2.48350
231.98,20.02000,      -2.54046
234.552,20.27667,      -2.60122
237.12,20.53333,      -2.66528
239.685,20.79000,      -2.73735
242.251,21.04667,      -2.81911
244.818,21.30333,      -2.90007
247.386,21.56000,      -2.98453
249.946,21.81667,      -3.07379
252.512,22.07333,      -3.17176
255.074,22.33000,      -3.27462
257.646,22.58667,      -3.38588
260.213,22.84333,      -3.50443
262.776,23.10000,      -3.63129
265.34,23.35667,      -3.76114
267.917,23.61333,      -3.89290
270.476,23.87000,      -4.03265
273.039,24.12667,      -4.17119
275.602,24.38333,      -4.31184
278.165,24.64000,      -4.45638
280.732,24.89667,      -4.60492
283.298,25.15333,      -4.75175
285.866,25.41000,      -4.90088
288.469,25.66667,      -5.05181
291,25.92333,      -5.20783
293.557,26.18000,      -5.36275
296.128,26.43667,      -5.51866
298.694,26.69333,      -5.67937
301.266,26.95000,      -5.84357
303.829,27.20667,      -6.00887
306.396,27.46333,      -6.18127
308.958,27.72000,      -6.36588
311.528,27.97667,      -6.55348
314.097,28.23333,      -6.74928
316.661,28.49000,      -6.95298
319.225,28.74667,      -7.15219
321.794,29.00333,      -7.33929
324.357,29.26000,      -7.51359
326.908,29.51667,      -7.67269
329.473,29.77333,      -7.80759
332.041,30.03000,      -7.92419
334.607,30.28667,      -8.02468
337.174,30.54333,      -8.10888
339.738,30.80000,      -8.17977
342.305,31.05667,      -8.24696
344.868,31.31333,      -8.30965
347.435,31.57000,      -8.36644
349.999,31.82667,      -8.42282
352.57,32.08333,      -8.47310
355.136,32.34000,      -8.52288
357.698,32.59667,      -8.56966
360.264,32.85333,      -8.61513
362.835,33.11000,      -8.65970
365.391,33.36667,      -8.70437
367.961,33.62333,      -8.74683
370.528,33.88000,      -8.78769
373.091,34.13667,      -8.82885
375.657,34.39333,      -8.86960
378.221,34.65000,      -8.91035
380.784,34.90667,      -8.94960
383.35,35.16333,      -8.98774
385.915,35.42000,      -9.02687
388.479,35.67667,      -9.06440
391.044,35.93333,      -9.10383
393.606,36.19000,      -9.13955
396.172,36.44667,      -9.17717
398.736,36.70333,      -9.21298
401.301,36.96000,      -9.25028
403.869,37.21667,      -9.28548
406.432,37.47333,      -9.31908
408.994,37.73000,      -9.35458
411.557,37.98667,      -9.38927
414.129,38.24333,      -9.42326
416.694,38.50000,      -9.45555
419.259,38.75667,      -9.48913
421.828,39.01333,      -9.52061
424.393,39.27000,      -9.55279
426.953,39.52667,      -9.58466
429.516,39.78333,      -9.61583
432.084,40.04000,      -9.64680
434.65,40.29667,      -9.67596
437.214,40.55333,      -9.70503
439.782,40.81000,      -9.73509
442.343,41.06667,      -9.76204
444.905,41.32333,      -9.79080
447.473,41.58000,      -9.81864
450.038,41.83667,      -9.84389
452.602,42.09333,      -9.87044
455.165,42.35000,      -9.89548
457.731,42.60667,      -9.91891
460.298,42.86333,      -9.94315
462.855,43.12000,      -9.96719
465.417,43.37667,      -9.99221
467.988,43.63333,     -10.01373
470.553,43.89000,     -10.03376
473.119,44.14667,     -10.05358
475.679,44.40333,     -10.07410
478.239,44.66000,     -10.09481
480.803,44.91667,     -10.11352
483.371,45.17333,     -10.13113
485.932,45.43000,     -10.14964
488.498,45.68667,     -10.16803
491.066,45.94333,     -10.18363
493.631,46.20000,     -10.20173
496.191,46.45667,     -10.21753
498.754,46.71333,     -10.23281
501.323,46.97000,     -10.24870
503.886,47.22667,     -10.26369
506.446,47.48333,     -10.27707
509.008,47.74000,     -10.29175
511.582,47.99667,     -10.30493
514.145,48.25333,     -10.31691
516.701,48.51000,     -10.33269
519.268,48.76667,     -10.34405
521.836,49.02333,     -10.35632
524.398,49.28000,     -10.36849
526.968,49.53667,     -10.38056
529.53,49.79333,     -10.39003
532.089,50.05000,     -10.40189
534.655,50.30667,     -10.41294
537.222,50.56333,     -10.42359
539.786,50.82000,     -10.43525
542.344,51.07667,     -10.44750
544.911,51.33333,     -10.45545
547.482,51.59000,     -10.46349
550.049,51.84667,     -10.47053
552.607,52.10333,     -10.48657
555.182,52.36000,     -10.49519
557.75,52.61667,     -10.50083
560.315,52.87333,     -10.51125
562.879,53.13000,     -10.52068
565.448,53.38667,     -10.52840
568.005,53.64333,     -10.53902
570.57,53.90000,     -10.54623
573.139,54.15667,     -10.55143
575.704,54.41333,     -10.56314
578.268,54.67000,     -10.56994
580.834,54.92667,     -10.57484
583.399,55.18333,     -10.58303
585.96,55.44000,     -10.59312
588.528,55.69667,     -10.60351
591.098,55.95333,     -10.60798
593.663,56.21000,     -10.61676
596.233,56.46667,     -10.62323
598.803,56.72333,     -10.62909
601.364,56.98000,     -10.63766
603.936,57.23667,     -10.64141
606.5,57.49333,     -10.65026
609.062,57.75000,     -10.65861
611.635,58.00667,     -10.66485
614.2,58.26333,     -10.66880
616.765,58.52000,     -10.67893
619.337,58.77667,     -10.68386
621.902,59.03333,     -10.69089
624.461,59.29000,     -10.69742
627.028,59.54667,     -10.70494
629.592,59.80333,     -10.71025
632.164,60.06000,     -10.71586
634.72,60.31667,     -10.72188
637.284,60.57333,     -10.72748
639.859,60.83000,     -10.73288
642.415,61.08667,     -10.73959
644.984,61.34333,     -10.74368
647.551,61.60000,     -10.74947
650.114,61.85667,     -10.75546
652.677,62.11333,     -10.76005
655.241,62.37000,     -10.76604
657.806,62.62667,     -10.77212
660.38,62.88333,     -10.77709
662.939,63.14000,     -10.78167
665.505,63.39667,     -10.78894
668.072,63.65333,     -10.79371
670.641,63.91000,     -10.79738
673.202,64.16667,     -10.80275
675.769,64.42333,     -10.80801
678.337,64.68000,     -10.81297
680.901,64.93667,     -10.81623
683.468,65.19333,     -10.82268
686.037,65.45000,     -10.82554
688.601,65.70667,     -10.83179
691.17,65.96333,     -10.83574
693.737,66.22000,     -10.83919
696.306,66.47667,     -10.84433
698.877,66.73333,     -10.84898
701.443,66.99000,     -10.85422
704.007,67.24667,     -10.85667
706.57,67.50333,     -10.86231
709.141,67.76000,     -10.86695
711.708,68.01667,     -10.87069
714.27,68.27333,     -10.87443
716.84,68.53000,     -10.87837
719.404,68.78667,     -10.88122
721.971,69.04333,     -10.88685
724.536,69.30000,     -10.89059
727.1,69.55667,     -10.89383
729.664,69.81333,     -10.89766
732.231,70.07000,     -10.90209
734.798,70.32667,     -10.90692
737.359,70.58333,     -10.91015
739.924,70.84000,     -10.91377
742.483,71.09667,     -10.91700
745.054,71.35333,     -10.92131
747.626,71.61000,     -10.92562
750.187,71.86667,     -10.92864
752.759,72.12333,     -10.93254
755.321,72.38000,     -10.93805
757.887,72.63667,     -10.94094
760.448,72.89333,     -10.94274
763.012,73.15000,     -10.94573
765.582,73.40667,     -10.95111
768.149,73.66333,     -10.95560
770.718,73.92000,     -10.95837
773.28,74.17667,     -10.95915
775.845,74.43333,     -10.96181
778.41,74.69000,     -10.96567
780.971,74.94667,     -10.96903
783.538,75.20333,     -10.97667
786.107,75.46000,     -10.97792
788.672,75.71667,     -10.98055
791.247,75.97333,     -10.98438
793.82,76.23000,     -10.98730
796.385,76.48667,     -10.99172
798.939,76.74333,     -10.99493
799.487,76.79833,     -10.99564