File: data-raw/TGA/I_TGA.csv
#EXPORTTYPE:                 ,DATA SINGLE
#FILE:                       ,I.ngb-st9
#FORMAT:                     ,NETZSCH5
#FTYPE:                      ,ANSI
#IDENTITY:                   ,Saras
#DECIMAL:                    ,POINT
#SEPARATOR:                  ,COMMA
#MTYPE:                      ,TG
#INSTRUMENT:                 ,NETZSCH TG 209F1 Libra
#PROJECT:                    ,IL
#DATE/TIME:                  ,17/03/2017 9:34:05 AM (UTC+11)
#CORR. FILE:                 ,
#TEMPCAL:                    ,TCALZERO.TCX
#LABORATORY:                 ,Capture Lab
#OPERATOR:                   ,NJN
#REMARK:                     ,Training run
#SAMPLE:                     ,I
#SAMPLE MASS /mg:            ,17.0964
#MATERIAL:                   ,KHCO3
#TYPE OF CRUCIBLE:           ,Al2O3
#SAMPLE CRUCIBLE MASS /mg:   ,311.1070
#REFERENCE CRUCIBLE MASS /mg:,
#M.RANGE /mg:                ,2000
#CORR. CODE:                 ,090
#RANGE:                      ,32°C/10.0(K/min)/800°C
#SEGMENT:                    ,S1/1
#SEG. 1:                     ,32°C/10.0(K/min)/800°C

##Temp./°C,Time/min,Mass loss/mg
 31.53400, 0.00000,-3.086157e-003
 32.67700, 0.25667,-4.902413e-003
 34.93000, 0.51333,-1.196805e-002
 37.86200, 0.77000,-2.395116e-002
 41.08300, 1.02667,-4.421021e-002
 44.25700, 1.28333,-6.707710e-002
 47.21000, 1.54000,-9.410746e-002
 49.92600, 1.79667,      -0.12642
 52.46100, 2.05333,      -0.16287
 54.93300, 2.31000,      -0.20344
 57.39900, 2.56667,      -0.24763
 59.90900, 2.82333,      -0.29493
 62.45800, 3.08000,      -0.34422
 65.03600, 3.33667,      -0.39633
 67.63000, 3.59333,      -0.45049
 70.22300, 3.85000,      -0.50581
 72.81300, 4.10667,      -0.56064
 75.39600, 4.36333,      -0.61507
 77.96900, 4.62000,      -0.66685
 80.53800, 4.87667,      -0.71733
 83.10900, 5.13333,      -0.76443
 85.67400, 5.39000,      -0.80891
 88.25400, 5.64667,      -0.84832
 90.82700, 5.90333,      -0.88575
 93.39900, 6.16000,      -0.92072
 95.96400, 6.41667,      -0.94996
 98.53600, 6.67333,      -0.97664
101.102, 6.93000,      -1.00074
103.671, 7.18667,      -1.02179
106.235, 7.44333,      -1.04031
108.795, 7.70000,      -1.05639
111.354, 7.95667,      -1.06965
113.915, 8.21333,      -1.08118
116.487, 8.47000,      -1.09120
119.049, 8.72667,      -1.09808
121.612, 8.98333,      -1.10573
124.181, 9.24000,      -1.11168
126.742, 9.49667,      -1.11717
129.307, 9.75333,      -1.12177
131.871,10.01000,      -1.12613
134.44,10.26667,      -1.13189
137.015,10.52333,      -1.13704
139.584,10.78000,      -1.14115
142.147,11.03667,      -1.14584
144.713,11.29333,      -1.15134
147.284,11.55000,      -1.15832
149.847,11.80667,      -1.16769
152.418,12.06333,      -1.17556
154.987,12.32000,      -1.18291
157.552,12.57667,      -1.19235
160.115,12.83333,      -1.20209
162.68,13.09000,      -1.21193
165.246,13.34667,      -1.22227
167.812,13.60333,      -1.23320
170.373,13.86000,      -1.24502
172.946,14.11667,      -1.25567
175.514,14.37333,      -1.26810
178.082,14.63000,      -1.28194
180.651,14.88667,      -1.29669
183.22,15.14333,      -1.31094
185.784,15.40000,      -1.32990
188.351,15.65667,      -1.34967
190.915,15.91333,      -1.36884
193.48,16.17000,      -1.39173
196.05,16.42667,      -1.41723
198.617,16.68333,      -1.44395
201.186,16.94000,      -1.47317
203.759,17.19667,      -1.50291
206.323,17.45333,      -1.53714
208.885,17.71000,      -1.57328
211.452,17.96667,      -1.61183
214.018,18.22333,      -1.65228
216.588,18.48000,      -1.69533
219.158,18.73667,      -1.73858
221.719,18.99333,      -1.78483
224.284,19.25000,      -1.83408
226.851,19.50667,      -1.88284
229.419,19.76333,      -1.93480
231.985,20.02000,      -1.99176
234.549,20.27667,      -2.05252
237.117,20.53333,      -2.12708
239.68,20.79000,      -2.19584
242.245,21.04667,      -2.28911
244.815,21.30333,      -2.37717
247.386,21.56000,      -2.47563
249.952,21.81667,      -2.58509
252.515,22.07333,      -2.70816
255.081,22.33000,      -2.84102
257.647,22.58667,      -2.98938
260.214,22.84333,      -3.15013
262.779,23.10000,      -3.32729
265.347,23.35667,      -3.51754
267.913,23.61333,      -3.72340
270.485,23.87000,      -3.94815
273.045,24.12667,      -4.18219
275.605,24.38333,      -4.42954
278.169,24.64000,      -4.68668
280.737,24.89667,      -4.94622
283.298,25.15333,      -5.20185
285.89,25.41000,      -5.45858
288.431,25.66667,      -5.71821
290.982,25.92333,      -5.96683
293.547,26.18000,      -6.21025
296.118,26.43667,      -6.45156
298.684,26.69333,      -6.69207
301.254,26.95000,      -6.92647
303.822,27.20667,      -7.16147
306.388,27.46333,      -7.39957
308.958,27.72000,      -7.63978
311.525,27.97667,      -7.88568
314.093,28.23333,      -8.14178
316.659,28.49000,      -8.40798
319.228,28.74667,      -8.67489
321.794,29.00333,      -8.93629
324.359,29.26000,      -9.18059
326.92,29.51667,      -9.40589
329.483,29.77333,      -9.60609
332.049,30.03000,      -9.78368
334.619,30.28667,      -9.94138
337.177,30.54333,     -10.07678
339.743,30.80000,     -10.19777
342.313,31.05667,     -10.30496
344.873,31.31333,     -10.40175
347.437,31.57000,     -10.48174
350.003,31.82667,     -10.55262
352.57,32.08333,     -10.61930
355.137,32.34000,     -10.67678
357.701,32.59667,     -10.73106
360.27,32.85333,     -10.77983
362.829,33.11000,     -10.82730
365.394,33.36667,     -10.86877
367.957,33.62333,     -10.90884
370.526,33.88000,     -10.94729
373.089,34.13667,     -10.98525
375.657,34.39333,     -11.02070
378.22,34.65000,     -11.05705
380.789,34.90667,     -11.09299
383.348,35.16333,     -11.12684
385.911,35.42000,     -11.16097
388.482,35.67667,     -11.19140
391.051,35.93333,     -11.22623
393.609,36.19000,     -11.25906
396.169,36.44667,     -11.28977
398.736,36.70333,     -11.32108
401.301,36.96000,     -11.35058
403.864,37.21667,     -11.38219
406.429,37.47333,     -11.41068
408.996,37.73000,     -11.44088
411.56,37.98667,     -11.47007
414.12,38.24333,     -11.49966
416.693,38.50000,     -11.52774
419.254,38.75667,     -11.55503
421.829,39.01333,     -11.58171
424.386,39.27000,     -11.60799
426.954,39.52667,     -11.63556
429.517,39.78333,     -11.65983
432.081,40.04000,     -11.68600
434.644,40.29667,     -11.71177
437.209,40.55333,     -11.73673
439.776,40.81000,     -11.76069
442.335,41.06667,     -11.78395
444.905,41.32333,     -11.80670
447.472,41.58000,     -11.82904
450.032,41.83667,     -11.85140
452.596,42.09333,     -11.87204
455.161,42.35000,     -11.89268
457.727,42.60667,     -11.91201
460.291,42.86333,     -11.93125
462.852,43.12000,     -11.95018
465.417,43.37667,     -11.96861
467.984,43.63333,     -11.98654
470.553,43.89000,     -12.00236
473.123,44.14667,     -12.01868
475.684,44.40333,     -12.03430
478.246,44.66000,     -12.05121
480.808,44.91667,     -12.06712
483.376,45.17333,     -12.08323
485.938,45.43000,     -12.09683
488.502,45.68667,     -12.10974
491.074,45.94333,     -12.12273
493.639,46.20000,     -12.13473
496.195,46.45667,     -12.14863
498.755,46.71333,     -12.16282
501.32,46.97000,     -12.17590
503.89,47.22667,     -12.18608
506.454,47.48333,     -12.19817
509.022,47.74000,     -12.20925
511.583,47.99667,     -12.21963
514.148,48.25333,     -12.23101
516.713,48.51000,     -12.24228
519.276,48.76667,     -12.25406
521.847,49.02333,     -12.26202
524.413,49.28000,     -12.27259
526.975,49.53667,     -12.28286
529.542,49.79333,     -12.29302
532.11,50.05000,     -12.30178
534.677,50.30667,     -12.31034
537.241,50.56333,     -12.31739
539.805,50.82000,     -12.32875
542.367,51.07667,     -12.33640
544.931,51.33333,     -12.34584
547.494,51.59000,     -12.35279
550.057,51.84667,     -12.36353
552.628,52.10333,     -12.37016
555.206,52.36000,     -12.37859
557.769,52.61667,     -12.38623
560.332,52.87333,     -12.39415
562.899,53.13000,     -12.40217
565.464,53.38667,     -12.40879
568.028,53.64333,     -12.41851
570.589,53.90000,     -12.42713
573.155,54.15667,     -12.43223
575.727,54.41333,     -12.43833
578.288,54.67000,     -12.44554
580.85,54.92667,     -12.45513
583.418,55.18333,     -12.46253
585.985,55.44000,     -12.46931
588.561,55.69667,     -12.47339
591.121,55.95333,     -12.48508
593.687,56.21000,     -12.48905
596.255,56.46667,     -12.49902
598.829,56.72333,     -12.50258
601.395,56.98000,     -12.50745
603.956,57.23667,     -12.51691
606.514,57.49333,     -12.52166
609.08,57.75000,     -12.53321
611.656,58.00667,     -12.53305
614.208,58.26333,     -12.53830
616.779,58.52000,     -12.55012
619.345,58.77667,     -12.55396
621.912,59.03333,     -12.56018
624.474,59.29000,     -12.56681
627.039,59.54667,     -12.57133
629.605,59.80333,     -12.57735
632.167,60.06000,     -12.58246
634.734,60.31667,     -12.58937
637.298,60.57333,     -12.59458
639.867,60.83000,     -12.59958
642.424,61.08667,     -12.60538
644.99,61.34333,     -12.61068
647.56,61.60000,     -12.61537
650.122,61.85667,     -12.62086
652.685,62.11333,     -12.62955
655.25,62.37000,     -12.63323
657.812,62.62667,     -12.63992
660.38,62.88333,     -12.64589
662.947,63.14000,     -12.65007
665.513,63.39667,     -12.65454
668.078,63.65333,     -12.65801
670.642,63.91000,     -12.66758
673.208,64.16667,     -12.67364
675.774,64.42333,     -12.67741
678.344,64.68000,     -12.68387
680.912,64.93667,     -12.68742
683.466,65.19333,     -12.69279
686.039,65.45000,     -12.69734
688.6,65.70667,     -12.70319
691.166,65.96333,     -12.70844
693.739,66.22000,     -12.71418
696.3,66.47667,     -12.72084
698.871,66.73333,     -12.72458
701.434,66.99000,     -12.73102
704.01,67.24667,     -12.73376
706.57,67.50333,     -12.73851
709.137,67.76000,     -12.74405
711.702,68.01667,     -12.75250
714.262,68.27333,     -12.75564
716.827,68.53000,     -12.75978
719.396,68.78667,     -12.76272
721.958,69.04333,     -12.77206
724.526,69.30000,     -12.77599
727.092,69.55667,     -12.78383
729.659,69.81333,     -12.78716
732.219,70.07000,     -12.79029
734.783,70.32667,     -12.79572
737.357,70.58333,     -12.79984
739.917,70.84000,     -12.80718
742.487,71.09667,     -12.81269
745.052,71.35333,     -12.81461
747.619,71.61000,     -12.82202
750.195,71.86667,     -12.82743
752.753,72.12333,     -12.83204
755.322,72.38000,     -12.83584
757.882,72.63667,     -12.84615
760.453,72.89333,     -12.84604
763.016,73.15000,     -12.85133
765.576,73.40667,     -12.85712
768.139,73.66333,     -12.85990
770.708,73.92000,     -12.86928
773.281,74.17667,     -12.87094
775.848,74.43333,     -12.87511
778.415,74.69000,     -12.88177
780.987,74.94667,     -12.88342
783.554,75.20333,     -12.89017
786.117,75.46000,     -12.89571
788.676,75.71667,     -12.89915
791.244,75.97333,     -12.90318
793.821,76.23000,     -12.90989
796.383,76.48667,     -12.91132
798.957,76.74333,     -12.92102
799.357,76.78500,     -12.92179