File: data-raw/TGA/J_TGA.csv
#EXPORTTYPE:                 ,DATA SINGLE
#FILE:                       ,J.ngb-st9
#FORMAT:                     ,NETZSCH5
#FTYPE:                      ,ANSI
#IDENTITY:                   ,Saras
#DECIMAL:                    ,POINT
#SEPARATOR:                  ,COMMA
#MTYPE:                      ,TG
#INSTRUMENT:                 ,NETZSCH TG 209F1 Libra
#PROJECT:                    ,IL
#DATE/TIME:                  ,17/03/2017 1:26:13 PM (UTC+11)
#CORR. FILE:                 ,
#TEMPCAL:                    ,TCALZERO.TCX
#LABORATORY:                 ,Capture Lab
#OPERATOR:                   ,NJN
#REMARK:                     ,Training run
#SAMPLE:                     ,J
#SAMPLE MASS /mg:            ,11.0150
#MATERIAL:                   ,KHCO3
#TYPE OF CRUCIBLE:           ,Al2O3
#SAMPLE CRUCIBLE MASS /mg:   ,311.9513
#REFERENCE CRUCIBLE MASS /mg:,
#M.RANGE /mg:                ,2000
#CORR. CODE:                 ,090
#RANGE:                      ,32°C/10.0(K/min)/800°C
#SEGMENT:                    ,S1/1
#SEG. 1:                     ,32°C/10.0(K/min)/800°C

##Temp./°C,Time/min,Mass loss/mg
 31.54900, 0.00000,-1.645848e-003
 32.69000, 0.25667,-3.877074e-003
 34.98700, 0.51333,-6.539496e-003
 37.94000, 0.77000,-1.186023e-002
 41.16800, 1.02667,-1.984389e-002
 44.32000, 1.28333,-3.387688e-002
 47.24200, 1.54000,-4.886914e-002
 49.92700, 1.79667,-6.607033e-002
 52.45400, 2.05333,-8.411131e-002
 54.92400, 2.31000,      -0.10104
 57.40300, 2.56667,      -0.12225
 59.92100, 2.82333,      -0.14388
 62.47900, 3.08000,      -0.16636
 65.06400, 3.33667,      -0.18735
 67.65500, 3.59333,      -0.20895
 70.24200, 3.85000,      -0.23200
 72.82000, 4.10667,      -0.25422
 75.39300, 4.36333,      -0.27374
 77.96200, 4.62000,      -0.29294
 80.53400, 4.87667,      -0.31023
 83.10400, 5.13333,      -0.32624
 85.66600, 5.39000,      -0.34029
 88.23900, 5.64667,      -0.35329
 90.80900, 5.90333,      -0.36495
 93.38200, 6.16000,      -0.37262
 95.95000, 6.41667,      -0.38388
 98.51200, 6.67333,      -0.39012
101.084, 6.93000,      -0.39584
103.652, 7.18667,      -0.40179
106.217, 7.44333,      -0.40671
108.78, 7.70000,      -0.41030
111.345, 7.95667,      -0.41416
113.914, 8.21333,      -0.41660
116.478, 8.47000,      -0.41920
119.04, 8.72667,      -0.42197
121.602, 8.98333,      -0.42463
124.171, 9.24000,      -0.42709
126.739, 9.49667,      -0.42789
129.306, 9.75333,      -0.42888
131.868,10.01000,      -0.43053
134.445,10.26667,      -0.43190
137.011,10.52333,      -0.43343
139.583,10.78000,      -0.43535
142.151,11.03667,      -0.43755
144.721,11.29333,      -0.43995
147.284,11.55000,      -0.44222
149.851,11.80667,      -0.44429
152.42,12.06333,      -0.44705
154.983,12.32000,      -0.45010
157.551,12.57667,      -0.45205
160.117,12.83333,      -0.45659
162.678,13.09000,      -0.46172
165.246,13.34667,      -0.46636
167.811,13.60333,      -0.47050
170.382,13.86000,      -0.47544
172.947,14.11667,      -0.48076
175.515,14.37333,      -0.48650
178.088,14.63000,      -0.49155
180.653,14.88667,      -0.50079
183.222,15.14333,      -0.50844
185.785,15.40000,      -0.51760
188.351,15.65667,      -0.52816
190.919,15.91333,      -0.54144
193.486,16.17000,      -0.55463
196.053,16.42667,      -0.57303
198.621,16.68333,      -0.59155
201.191,16.94000,      -0.61358
203.754,17.19667,      -0.63921
206.321,17.45333,      -0.66594
208.881,17.71000,      -0.69628
211.451,17.96667,      -0.72763
214.022,18.22333,      -0.76098
216.587,18.48000,      -0.79602
219.153,18.73667,      -0.83148
221.72,18.99333,      -0.86843
224.286,19.25000,      -0.90789
226.86,19.50667,      -0.94944
229.423,19.76333,      -0.99630
231.986,20.02000,      -1.04726
234.549,20.27667,      -1.10532
237.115,20.53333,      -1.18008
239.688,20.79000,      -1.26435
242.249,21.04667,      -1.35161
244.815,21.30333,      -1.44827
247.387,21.56000,      -1.55233
249.952,21.81667,      -1.66709
252.516,22.07333,      -1.78856
255.079,22.33000,      -1.91452
257.643,22.58667,      -2.04308
260.209,22.84333,      -2.17363
262.773,23.10000,      -2.30479
265.34,23.35667,      -2.43315
267.908,23.61333,      -2.55980
270.47,23.87000,      -2.68365
273.035,24.12667,      -2.80619
275.602,24.38333,      -2.92494
278.165,24.64000,      -3.03958
280.732,24.89667,      -3.15302
283.295,25.15333,      -3.26425
285.882,25.41000,      -3.37658
288.44,25.66667,      -3.49011
290.997,25.92333,      -3.60843
293.56,26.18000,      -3.73015
296.123,26.43667,      -3.85846
298.69,26.69333,      -3.99587
301.257,26.95000,      -4.14707
303.818,27.20667,      -4.31107
306.387,27.46333,      -4.49057
308.96,27.72000,      -4.68868
311.527,27.97667,      -4.90498
314.09,28.23333,      -5.13368
316.659,28.49000,      -5.37548
319.225,28.74667,      -5.62229
321.799,29.00333,      -5.85299
324.362,29.26000,      -6.06349
326.925,29.51667,      -6.24489
329.485,29.77333,      -6.38749
332.043,30.03000,      -6.49629
334.607,30.28667,      -6.56768
337.173,30.54333,      -6.63288
339.739,30.80000,      -6.68627
342.307,31.05667,      -6.73286
344.871,31.31333,      -6.77545
347.432,31.57000,      -6.81624
350,31.82667,      -6.85182
352.566,32.08333,      -6.88730
355.128,32.34000,      -6.91818
357.695,32.59667,      -6.95066
360.266,32.85333,      -6.97933
362.835,33.11000,      -7.00800
365.397,33.36667,      -7.03747
367.957,33.62333,      -7.06554
370.527,33.88000,      -7.09049
373.095,34.13667,      -7.11645
375.657,34.39333,      -7.14380
378.219,34.65000,      -7.16976
380.777,34.90667,      -7.19410
383.347,35.16333,      -7.21874
385.909,35.42000,      -7.24338
388.478,35.67667,      -7.26780
391.042,35.93333,      -7.29163
393.607,36.19000,      -7.31355
396.17,36.44667,      -7.33667
398.735,36.70333,      -7.35898
401.303,36.96000,      -7.38098
403.871,37.21667,      -7.40298
406.43,37.47333,      -7.42648
408.999,37.73000,      -7.44608
411.56,37.98667,      -7.46887
414.126,38.24333,      -7.49026
416.696,38.50000,      -7.51214
419.257,38.75667,      -7.53323
421.816,39.01333,      -7.55351
424.387,39.27000,      -7.57289
426.948,39.52667,      -7.59376
429.519,39.78333,      -7.61353
432.084,40.04000,      -7.63080
434.647,40.29667,      -7.64886
437.211,40.55333,      -7.66693
439.78,40.81000,      -7.68478
442.337,41.06667,      -7.70605
444.895,41.32333,      -7.72390
447.468,41.58000,      -7.73674
450.035,41.83667,      -7.75289
452.59,42.09333,      -7.77094
455.162,42.35000,      -7.78497
457.726,42.60667,      -7.80042
460.294,42.86333,      -7.81415
462.851,43.12000,      -7.83039
465.419,43.37667,      -7.84441
467.984,43.63333,      -7.85664
470.552,43.89000,      -7.86866
473.12,44.14667,      -7.87978
475.677,44.40333,      -7.89410
478.247,44.66000,      -7.90571
480.8,44.91667,      -7.91873
483.367,45.17333,      -7.92933
485.939,45.43000,      -7.93603
488.5,45.68667,      -7.94674
491.064,45.94333,      -7.95823
493.625,46.20000,      -7.97033
496.187,46.45667,      -7.97863
498.753,46.71333,      -7.98781
501.316,46.97000,      -7.99680
503.879,47.22667,      -8.00449
506.449,47.48333,      -8.01527
509.01,47.74000,      -8.02315
511.58,47.99667,      -8.02963
514.142,48.25333,      -8.03851
516.7,48.51000,      -8.04459
519.259,48.76667,      -8.05446
521.838,49.02333,      -8.06202
524.399,49.28000,      -8.06660
526.968,49.53667,      -8.07046
529.53,49.79333,      -8.07993
532.087,50.05000,      -8.09139
534.656,50.30667,      -8.09774
537.221,50.56333,      -8.10020
539.789,50.82000,      -8.10675
542.347,51.07667,      -8.11470
544.916,51.33333,      -8.11764
547.475,51.59000,      -8.12669
550.041,51.84667,      -8.12943
552.607,52.10333,      -8.13727
555.175,52.36000,      -8.14140
557.742,52.61667,      -8.14633
560.307,52.87333,      -8.15076
562.869,53.13000,      -8.15628
565.443,53.38667,      -8.16140
567.999,53.64333,      -8.16812
570.569,53.90000,      -8.17043
573.132,54.15667,      -8.17594
575.692,54.41333,      -8.18264
578.262,54.67000,      -8.18594
580.82,54.92667,      -8.19015
583.397,55.18333,      -8.19433
585.959,55.44000,      -8.19813
588.515,55.69667,      -8.20311
591.089,55.95333,      -8.20738
593.663,56.21000,      -8.21086
596.233,56.46667,      -8.21523
598.802,56.72333,      -8.21769
601.374,56.98000,      -8.22095
603.933,57.23667,      -8.22631
606.504,57.49333,      -8.23086
609.071,57.75000,      -8.23211
611.633,58.00667,      -8.23696
614.198,58.26333,      -8.24359
616.765,58.52000,      -8.24543
619.327,58.77667,      -8.24787
621.894,59.03333,      -8.25229
624.458,59.29000,      -8.25592
627.028,59.54667,      -8.25823
629.59,59.80333,      -8.26215
632.153,60.06000,      -8.26687
634.721,60.31667,      -8.26888
637.288,60.57333,      -8.27308
639.852,60.83000,      -8.27558
642.419,61.08667,      -8.27958
644.989,61.34333,      -8.28138
647.552,61.60000,      -8.28477
650.116,61.85667,      -8.28726
652.681,62.11333,      -8.29035
655.247,62.37000,      -8.29183
657.81,62.62667,      -8.29441
660.381,62.88333,      -8.29869
662.95,63.14000,      -8.30196
665.508,63.39667,      -8.30644
668.075,63.65333,      -8.30721
670.639,63.91000,      -8.30898
673.204,64.16667,      -8.31224
675.765,64.42333,      -8.31571
678.336,64.68000,      -8.31867
680.899,64.93667,      -8.32103
683.464,65.19333,      -8.32408
686.031,65.45000,      -8.32604
688.602,65.70667,      -8.32779
691.162,65.96333,      -8.33694
693.739,66.22000,      -8.33518
696.301,66.47667,      -8.33684
698.863,66.73333,      -8.34108
701.442,66.99000,      -8.33972
704.001,67.24667,      -8.34327
706.573,67.50333,      -8.34451
709.128,67.76000,      -8.34896
711.694,68.01667,      -8.35280
714.269,68.27333,      -8.35003
716.834,68.53000,      -8.35288
719.392,68.78667,      -8.35842
721.968,69.04333,      -8.36565
724.527,69.30000,      -8.36759
727.094,69.55667,      -8.36793
729.666,69.81333,      -8.36756
732.223,70.07000,      -8.37280
734.8,70.32667,      -8.37062
737.356,70.58333,      -8.37365
739.925,70.84000,      -8.37937
742.488,71.09667,      -8.37769
745.053,71.35333,      -8.38231
747.615,71.61000,      -8.38513
750.183,71.86667,      -8.38934
752.754,72.12333,      -8.39104
755.316,72.38000,      -8.39225
757.881,72.63667,      -8.39285
760.438,72.89333,      -8.39564
763.002,73.15000,      -8.40013
765.576,73.40667,      -8.40292
768.138,73.66333,      -8.40500
770.705,73.92000,      -8.40728
773.276,74.17667,      -8.40704
775.843,74.43333,      -8.41081
778.406,74.69000,      -8.41247
780.975,74.94667,      -8.41352
783.533,75.20333,      -8.41998
786.105,75.46000,      -8.42172
788.673,75.71667,      -8.42575
791.241,75.97333,      -8.42668
793.808,76.23000,      -8.42750
796.379,76.48667,      -8.42772
798.931,76.74333,      -8.43023
799.394,76.79000,      -8.43267