File: data-raw/TGA/K_TGA.csv
#EXPORTTYPE:                 ,DATA SINGLE
#FILE:                       ,K.ngb-st9
#FORMAT:                     ,NETZSCH5
#FTYPE:                      ,ANSI
#IDENTITY:                   ,Saras
#DECIMAL:                    ,POINT
#SEPARATOR:                  ,COMMA
#MTYPE:                      ,TG
#INSTRUMENT:                 ,NETZSCH TG 209F1 Libra
#PROJECT:                    ,IL
#DATE/TIME:                  ,20/03/2017 10:20:09 AM (UTC+11)
#CORR. FILE:                 ,
#TEMPCAL:                    ,TCALZERO.TCX
#LABORATORY:                 ,Capture Lab
#OPERATOR:                   ,NJN
#REMARK:                     ,Training run
#SAMPLE:                     ,K
#SAMPLE MASS /mg:            ,11.2596
#MATERIAL:                   ,zeolite
#TYPE OF CRUCIBLE:           ,Al2O3
#SAMPLE CRUCIBLE MASS /mg:   ,312.1269
#REFERENCE CRUCIBLE MASS /mg:,
#M.RANGE /mg:                ,2000
#CORR. CODE:                 ,090
#RANGE:                      ,32°C/10.0(K/min)/800°C
#SEGMENT:                    ,S1/1
#SEG. 1:                     ,32°C/10.0(K/min)/800°C

##Temp./°C,Time/min,Mass loss/mg
 31.96500, 0.00000,-2.133500e-003
 33.03700, 0.25667,-1.441679e-003
 35.15800, 0.51333,-1.957099e-003
 37.95200, 0.77000,-3.457965e-003
 41.09200, 1.02667,-6.662541e-003
 44.22900, 1.28333,-1.172516e-002
 47.18300, 1.54000,-2.051080e-002
 49.90800, 1.79667,-3.007344e-002
 52.46100, 2.05333,-4.122055e-002
 54.93600, 2.31000,-5.372692e-002
 57.41500, 2.56667,-6.785242e-002
 59.92300, 2.82333,-8.353911e-002
 62.47600, 3.08000,-9.944067e-002
 65.05600, 3.33667,      -0.11803
 67.64500, 3.59333,      -0.13664
 70.23100, 3.85000,      -0.15571
 72.81000, 4.10667,      -0.17483
 75.38300, 4.36333,      -0.19452
 77.94700, 4.62000,      -0.21381
 80.52000, 4.87667,      -0.23134
 83.09000, 5.13333,      -0.24803
 85.66300, 5.39000,      -0.26392
 88.23300, 5.64667,      -0.27870
 90.80800, 5.90333,      -0.29176
 93.37300, 6.16000,      -0.30339
 95.94800, 6.41667,      -0.31409
 98.52200, 6.67333,      -0.32284
101.091, 6.93000,      -0.33164
103.652, 7.18667,      -0.33828
106.221, 7.44333,      -0.34412
108.78, 7.70000,      -0.34939
111.344, 7.95667,      -0.35366
113.911, 8.21333,      -0.35798
116.477, 8.47000,      -0.36251
119.039, 8.72667,      -0.36697
121.607, 8.98333,      -0.37085
124.17, 9.24000,      -0.37516
126.731, 9.49667,      -0.37937
129.304, 9.75333,      -0.38319
131.877,10.01000,      -0.38716
134.445,10.26667,      -0.39210
137.016,10.52333,      -0.39663
139.584,10.78000,      -0.40215
142.151,11.03667,      -0.40834
144.713,11.29333,      -0.41623
147.282,11.55000,      -0.42542
149.846,11.80667,      -0.43429
152.418,12.06333,      -0.44566
154.986,12.32000,      -0.45681
157.552,12.57667,      -0.46885
160.114,12.83333,      -0.48159
162.682,13.09000,      -0.49513
165.247,13.34667,      -0.50876
167.815,13.60333,      -0.52250
170.383,13.86000,      -0.53713
172.955,14.11667,      -0.55207
175.522,14.37333,      -0.56650
178.082,14.63000,      -0.58244
180.651,14.88667,      -0.59899
183.218,15.14333,      -0.61584
185.787,15.40000,      -0.63330
188.356,15.65667,      -0.65106
190.92,15.91333,      -0.67024
193.488,16.17000,      -0.68843
196.052,16.42667,      -0.70823
198.619,16.68333,      -0.72794
201.19,16.94000,      -0.74858
203.757,17.19667,      -0.76881
206.321,17.45333,      -0.79004
208.892,17.71000,      -0.81219
211.46,17.96667,      -0.83503
214.026,18.22333,      -0.85887
216.591,18.48000,      -0.88392
219.155,18.73667,      -0.91087
221.722,18.99333,      -0.93973
224.286,19.25000,      -0.97118
226.855,19.50667,      -1.00504
229.42,19.76333,      -1.04320
231.987,20.02000,      -1.08356
234.55,20.27667,      -1.12952
237.119,20.53333,      -1.18028
239.683,20.79000,      -1.23544
242.249,21.04667,      -1.29611
244.814,21.30333,      -1.36987
247.383,21.56000,      -1.44033
249.953,21.81667,      -1.52510
252.515,22.07333,      -1.61206
255.081,22.33000,      -1.69912
257.643,22.58667,      -1.79128
260.212,22.84333,      -1.88484
262.775,23.10000,      -1.98009
265.347,23.35667,      -2.07535
267.906,23.61333,      -2.17240
270.468,23.87000,      -2.26805
273.03,24.12667,      -2.36279
275.603,24.38333,      -2.45994
278.17,24.64000,      -2.55488
280.735,24.89667,      -2.64912
283.304,25.15333,      -2.74465
285.87,25.41000,      -2.84128
288.433,25.66667,      -2.93931
291.005,25.92333,      -3.03953
293.568,26.18000,      -3.14395
296.13,26.43667,      -3.25416
298.703,26.69333,      -3.36907
301.264,26.95000,      -3.49277
303.828,27.20667,      -3.62807
306.396,27.46333,      -3.77317
308.959,27.72000,      -3.93328
311.523,27.97667,      -4.10748
314.094,28.23333,      -4.30038
316.663,28.49000,      -4.50508
319.237,28.74667,      -4.71618
321.8,29.00333,      -4.92699
324.367,29.26000,      -5.12899
326.923,29.51667,      -5.30769
329.493,29.77333,      -5.46179
332.052,30.03000,      -5.59299
334.61,30.28667,      -5.70138
337.174,30.54333,      -5.79288
339.741,30.80000,      -5.86137
342.31,31.05667,      -5.93176
344.873,31.31333,      -5.99455
347.441,31.57000,      -6.04923
350.008,31.82667,      -6.09882
352.571,32.08333,      -6.14410
355.137,32.34000,      -6.18528
357.704,32.59667,      -6.22366
360.269,32.85333,      -6.25973
362.836,33.11000,      -6.29420
365.403,33.36667,      -6.32697
367.963,33.62333,      -6.35874
370.527,33.88000,      -6.38949
373.095,34.13667,      -6.41965
375.655,34.39333,      -6.44901
378.227,34.65000,      -6.47835
380.79,34.90667,      -6.50690
383.355,35.16333,      -6.53444
385.917,35.42000,      -6.56187
388.48,35.67667,      -6.58950
391.05,35.93333,      -6.61583
393.625,36.19000,      -6.64214
396.183,36.44667,      -6.66727
398.744,36.70333,      -6.69348
401.303,36.96000,      -6.71898
403.867,37.21667,      -6.74368
406.428,37.47333,      -6.76858
408.998,37.73000,      -6.79318
411.565,37.98667,      -6.81727
414.133,38.24333,      -6.84136
416.698,38.50000,      -6.86495
419.268,38.75667,      -6.88773
421.827,39.01333,      -6.91051
424.39,39.27000,      -6.93229
426.956,39.52667,      -6.95486
429.52,39.78333,      -6.97703
432.087,40.04000,      -6.99800
434.649,40.29667,      -7.01847
437.214,40.55333,      -7.03993
439.782,40.81000,      -7.05979
442.345,41.06667,      -7.07964
444.914,41.32333,      -7.09920
447.478,41.58000,      -7.11784
450.042,41.83667,      -7.13599
452.609,42.09333,      -7.15344
455.172,42.35000,      -7.17078
457.734,42.60667,      -7.18702
460.299,42.86333,      -7.20355
462.869,43.12000,      -7.21938
465.433,43.37667,      -7.23471
467.995,43.63333,      -7.24924
470.558,43.89000,      -7.26406
473.131,44.14667,      -7.27757
475.696,44.40333,      -7.29150
478.256,44.66000,      -7.30401
480.826,44.91667,      -7.31632
483.387,45.17333,      -7.32873
485.95,45.43000,      -7.34053
488.521,45.68667,      -7.35133
491.084,45.94333,      -7.36273
493.649,46.20000,      -7.37363
496.211,46.45667,      -7.38422
498.772,46.71333,      -7.39381
501.339,46.97000,      -7.40420
503.898,47.22667,      -7.41428
506.471,47.48333,      -7.42296
509.03,47.74000,      -7.43165
511.593,47.99667,      -7.44293
514.15,48.25333,      -7.45001
516.722,48.51000,      -7.45888
519.279,48.76667,      -7.46716
521.854,49.02333,      -7.47632
524.415,49.28000,      -7.48379
526.978,49.53667,      -7.49036
529.544,49.79333,      -7.49942
532.113,50.05000,      -7.50828
534.684,50.30667,      -7.51423
537.247,50.56333,      -7.52089
539.81,50.82000,      -7.52985
542.367,51.07667,      -7.53600
544.938,51.33333,      -7.54314
547.494,51.59000,      -7.55009
550.07,51.84667,      -7.55652
552.633,52.10333,      -7.56276
555.196,52.36000,      -7.57030
557.769,52.61667,      -7.57622
560.341,52.87333,      -7.58285
562.906,53.13000,      -7.58897
565.466,53.38667,      -7.59510
568.028,53.64333,      -7.60161
570.6,53.90000,      -7.60842
573.172,54.15667,      -7.61393
575.738,54.41333,      -7.61913
578.306,54.67000,      -7.62493
580.872,54.92667,      -7.63063
583.448,55.18333,      -7.63602
586.017,55.44000,      -7.64141
588.577,55.69667,      -7.64760
591.153,55.95333,      -7.65287
593.706,56.21000,      -7.65795
596.285,56.46667,      -7.66331
598.85,56.72333,      -7.66848
601.416,56.98000,      -7.67304
603.986,57.23667,      -7.67790
606.552,57.49333,      -7.68285
609.118,57.75000,      -7.68760
611.681,58.00667,      -7.69194
614.239,58.26333,      -7.69639
616.807,58.52000,      -7.70092
619.374,58.77667,      -7.70525
621.933,59.03333,      -7.70918
624.503,59.29000,      -7.71490
627.064,59.54667,      -7.71833
629.636,59.80333,      -7.72204
632.195,60.06000,      -7.72636
634.761,60.31667,      -7.73067
637.326,60.57333,      -7.73477
639.887,60.83000,      -7.73887
642.446,61.08667,      -7.74308
645.014,61.34333,      -7.74687
647.579,61.60000,      -7.74996
650.149,61.85667,      -7.75405
652.71,62.11333,      -7.75744
655.278,62.37000,      -7.76182
657.838,62.62667,      -7.76501
660.398,62.88333,      -7.76819
662.965,63.14000,      -7.77196
665.529,63.39667,      -7.77544
668.095,63.65333,      -7.77900
670.659,63.91000,      -7.78227
673.225,64.16667,      -7.78574
675.798,64.42333,      -7.78990
678.362,64.68000,      -7.79246
680.93,64.93667,      -7.79572
683.494,65.19333,      -7.79858
686.057,65.45000,      -7.80193
688.625,65.70667,      -7.80598
691.191,65.96333,      -7.80884
693.75,66.22000,      -7.81249
696.32,66.47667,      -7.81583
698.887,66.73333,      -7.81917
701.45,66.99000,      -7.82272
704.013,67.24667,      -7.82616
706.584,67.50333,      -7.82930
709.144,67.76000,      -7.83305
711.708,68.01667,      -7.83639
714.27,68.27333,      -7.83944
716.844,68.53000,      -7.84337
719.41,68.78667,      -7.84712
721.975,69.04333,      -7.85025
724.539,69.30000,      -7.85339
727.097,69.55667,      -7.85623
729.659,69.81333,      -7.85936
732.23,70.07000,      -7.86259
734.79,70.32667,      -7.86612
737.357,70.58333,      -7.87014
739.93,70.84000,      -7.87347
742.491,71.09667,      -7.87729
745.063,71.35333,      -7.88041
747.623,71.61000,      -7.88442
750.199,71.86667,      -7.88783
752.768,72.12333,      -7.89234
755.334,72.38000,      -7.89574
757.891,72.63667,      -7.89974
760.468,72.89333,      -7.90343
763.022,73.15000,      -7.90743
765.595,73.40667,      -7.91081
768.15,73.66333,      -7.91500
770.714,73.92000,      -7.91937
773.279,74.17667,      -7.92334
775.853,74.43333,      -7.92801
778.423,74.69000,      -7.93146
780.994,74.94667,      -7.93532
783.554,75.20333,      -7.93977
786.122,75.46000,      -7.94441
788.686,75.71667,      -7.94905
791.254,75.97333,      -7.95357
793.819,76.23000,      -7.95860
796.387,76.48667,      -7.96341
798.956,76.74333,      -7.96822
799.501,76.79833,      -7.96913