File: data-raw/TGA/KK_TGA.csv
#EXPORTTYPE:                 ,DATA SINGLE
#FILE:                       ,KK.ngb-st9
#FORMAT:                     ,NETZSCH5
#FTYPE:                      ,ANSI
#IDENTITY:                   ,Saras
#DECIMAL:                    ,POINT
#SEPARATOR:                  ,COMMA
#MTYPE:                      ,TG
#INSTRUMENT:                 ,NETZSCH TG 209F1 Libra
#PROJECT:                    ,IL
#DATE/TIME:                  ,20/03/2017 12:21:48 PM (UTC+11)
#CORR. FILE:                 ,
#TEMPCAL:                    ,TCALZERO.TCX
#LABORATORY:                 ,Capture Lab
#OPERATOR:                   ,NJN
#REMARK:                     ,Training run
#SAMPLE:                     ,KK
#SAMPLE MASS /mg:            ,14.6570
#MATERIAL:                   ,zeolite
#TYPE OF CRUCIBLE:           ,Al2O3
#SAMPLE CRUCIBLE MASS /mg:   ,311.1418
#REFERENCE CRUCIBLE MASS /mg:,
#M.RANGE /mg:                ,2000
#CORR. CODE:                 ,090
#RANGE:                      ,32°C/10.0(K/min)/800°C
#SEGMENT:                    ,S1/1
#SEG. 1:                     ,32°C/10.0(K/min)/800°C

##Temp./°C,Time/min,Mass loss/mg
 31.42300, 0.00000,-1.485111e-003
 32.58400, 0.25667,-6.088083e-003
 34.90200, 0.51333,-1.295238e-002
 37.89400, 0.77000,-2.420721e-002
 41.14700, 1.02667,-4.263326e-002
 44.31500, 1.28333,-6.304808e-002
 47.24500, 1.54000,-8.774077e-002
 49.93300, 1.79667,      -0.11560
 52.46300, 2.05333,      -0.14732
 54.92300, 2.31000,      -0.18080
 57.39100, 2.56667,      -0.21682
 59.91200, 2.82333,      -0.25509
 62.46600, 3.08000,      -0.29566
 65.05600, 3.33667,      -0.33687
 67.64800, 3.59333,      -0.37937
 70.24000, 3.85000,      -0.42141
 72.82100, 4.10667,      -0.46342
 75.39700, 4.36333,      -0.50394
 77.96700, 4.62000,      -0.54205
 80.53700, 4.87667,      -0.57795
 83.10700, 5.13333,      -0.61152
 85.66800, 5.39000,      -0.64180
 88.24200, 5.64667,      -0.67079
 90.81700, 5.90333,      -0.69637
 93.38600, 6.16000,      -0.71942
 95.96100, 6.41667,      -0.73969
 98.53500, 6.67333,      -0.75765
101.095, 6.93000,      -0.77403
103.664, 7.18667,      -0.78809
106.225, 7.44333,      -0.80081
108.79, 7.70000,      -0.81221
111.353, 7.95667,      -0.82055
113.915, 8.21333,      -0.82948
116.475, 8.47000,      -0.83659
119.038, 8.72667,      -0.84339
121.606, 8.98333,      -0.85175
124.168, 9.24000,      -0.85857
126.737, 9.49667,      -0.86528
129.304, 9.75333,      -0.87437
131.875,10.01000,      -0.88045
134.44,10.26667,      -0.88909
137.005,10.52333,      -0.89592
139.577,10.78000,      -0.90535
142.146,11.03667,      -0.91336
144.716,11.29333,      -0.92254
147.284,11.55000,      -0.92993
149.859,11.80667,      -0.93800
152.428,12.06333,      -0.94515
154.991,12.32000,      -0.95440
157.554,12.57667,      -0.96275
160.113,12.83333,      -0.97299
162.681,13.09000,      -0.98304
165.249,13.34667,      -0.99347
167.812,13.60333,      -1.00560
170.38,13.86000,      -1.01854
172.945,14.11667,      -1.03217
175.513,14.37333,      -1.04730
178.081,14.63000,      -1.06355
180.645,14.88667,      -1.07949
183.213,15.14333,      -1.09694
185.787,15.40000,      -1.11600
188.348,15.65667,      -1.13566
190.919,15.91333,      -1.15624
193.485,16.17000,      -1.17793
196.059,16.42667,      -1.20014
198.626,16.68333,      -1.22325
201.19,16.94000,      -1.24757
203.761,17.19667,      -1.27291
206.319,17.45333,      -1.29994
208.881,17.71000,      -1.32738
211.444,17.96667,      -1.35843
214.015,18.22333,      -1.39068
216.588,18.48000,      -1.42573
219.153,18.73667,      -1.46377
221.717,18.99333,      -1.50553
224.291,19.25000,      -1.55169
226.853,19.50667,      -1.60114
229.418,19.76333,      -1.65670
231.982,20.02000,      -1.71616
234.55,20.27667,      -1.78122
237.114,20.53333,      -1.86708
239.677,20.79000,      -1.93654
242.246,21.04667,      -2.01581
244.809,21.30333,      -2.10927
247.379,21.56000,      -2.19903
249.946,21.81667,      -2.29210
252.511,22.07333,      -2.38916
255.074,22.33000,      -2.48962
257.64,22.58667,      -2.59588
260.208,22.84333,      -2.70313
262.772,23.10000,      -2.81269
265.337,23.35667,      -2.92555
267.908,23.61333,      -3.03790
270.468,23.87000,      -3.15235
273.036,24.12667,      -3.26689
275.603,24.38333,      -3.38344
278.167,24.64000,      -3.49758
280.733,24.89667,      -3.61112
283.3,25.15333,      -3.72575
285.858,25.41000,      -3.83798
288.425,25.66667,      -3.94961
290.994,25.92333,      -4.06003
293.56,26.18000,      -4.17195
296.126,26.43667,      -4.28186
298.688,26.69333,      -4.39217
301.253,26.95000,      -4.50287
303.82,27.20667,      -4.61507
306.388,27.46333,      -4.72808
308.95,27.72000,      -4.84268
311.517,27.97667,      -4.96048
314.082,28.23333,      -5.08158
316.655,28.49000,      -5.20678
319.219,28.74667,      -5.33699
321.79,29.00333,      -5.47499
324.366,29.26000,      -5.61939
326.914,29.51667,      -5.77089
329.476,29.77333,      -5.93249
332.039,30.03000,      -6.09869
334.607,30.28667,      -6.27138
337.173,30.54333,      -6.44668
339.745,30.80000,      -6.62187
342.305,31.05667,      -6.79196
344.871,31.31333,      -6.95305
347.435,31.57000,      -7.10534
350.003,31.82667,      -7.24852
352.568,32.08333,      -7.37960
355.133,32.34000,      -7.49948
357.699,32.59667,      -7.61086
360.262,32.85333,      -7.71263
362.829,33.11000,      -7.80570
365.39,33.36667,      -7.89318
367.955,33.62333,      -7.97154
370.52,33.88000,      -8.05140
373.091,34.13667,      -8.12385
375.655,34.39333,      -8.21120
378.221,34.65000,      -8.28045
380.786,34.90667,      -8.35150
383.347,35.16333,      -8.43354
385.912,35.42000,      -8.50437
388.476,35.67667,      -8.58590
391.042,35.93333,      -8.65583
393.604,36.19000,      -8.73115
396.168,36.44667,      -8.81317
398.733,36.70333,      -8.88428
401.296,36.96000,      -8.95308
403.864,37.21667,      -9.02838
406.424,37.47333,      -9.10409
408.987,37.73000,      -9.16938
411.558,37.98667,      -9.23627
414.125,38.24333,      -9.30456
416.688,38.50000,      -9.36265
419.255,38.75667,      -9.42523
421.82,39.01333,      -9.48601
424.383,39.27000,      -9.54509
426.946,39.52667,      -9.60227
429.503,39.78333,      -9.65774
432.073,40.04000,      -9.71240
434.636,40.29667,      -9.76487
437.206,40.55333,      -9.81503
439.772,40.81000,      -9.86369
442.339,41.06667,      -9.91124
444.903,41.32333,      -9.95620
447.465,41.58000,      -9.99925
450.031,41.83667,     -10.04029
452.592,42.09333,     -10.07904
455.162,42.35000,     -10.11497
457.727,42.60667,     -10.14911
460.287,42.86333,     -10.18215
462.849,43.12000,     -10.21348
465.422,43.37667,     -10.24341
467.984,43.63333,     -10.27214
470.548,43.89000,     -10.29996
473.113,44.14667,     -10.32768
475.677,44.40333,     -10.35380
478.246,44.66000,     -10.38011
480.81,44.91667,     -10.40602
483.368,45.17333,     -10.42983
485.93,45.43000,     -10.45354
488.502,45.68667,     -10.47533
491.068,45.94333,     -10.49504
493.627,46.20000,     -10.51423
496.193,46.45667,     -10.53182
498.754,46.71333,     -10.54821
501.323,46.97000,     -10.56410
503.89,47.22667,     -10.57958
506.453,47.48333,     -10.59457
509.01,47.74000,     -10.60975
511.575,47.99667,     -10.62443
514.142,48.25333,     -10.63801
516.701,48.51000,     -10.65169
519.264,48.76667,     -10.66566
521.824,49.02333,     -10.67853
524.389,49.28000,     -10.69090
526.955,49.53667,     -10.70206
529.521,49.79333,     -10.71453
532.082,50.05000,     -10.72649
534.651,50.30667,     -10.73874
537.217,50.56333,     -10.74980
539.783,50.82000,     -10.76075
542.348,51.07667,     -10.77150
544.911,51.33333,     -10.78265
547.479,51.59000,     -10.79219
550.044,51.84667,     -10.80253
552.604,52.10333,     -10.81157
555.172,52.36000,     -10.82100
557.737,52.61667,     -10.83083
560.304,52.87333,     -10.83886
562.873,53.13000,     -10.84808
565.438,53.38667,     -10.85650
568,53.64333,     -10.86582
570.567,53.90000,     -10.87303
573.138,54.15667,     -10.88323
575.703,54.41333,     -10.89034
578.263,54.67000,     -10.89655
580.825,54.92667,     -10.90615
583.393,55.18333,     -10.91383
585.958,55.44000,     -10.92022
588.526,55.69667,     -10.92860
591.098,55.95333,     -10.93648
593.664,56.21000,     -10.94336
596.24,56.46667,     -10.95182
598.795,56.72333,     -10.95870
601.367,56.98000,     -10.96415
603.929,57.23667,     -10.97482
606.494,57.49333,     -10.98166
609.059,57.75000,     -10.98972
611.631,58.00667,     -10.99655
614.199,58.26333,     -11.00389
616.77,58.52000,     -11.01193
619.332,58.77667,     -11.02056
621.896,59.03333,     -11.02859
624.461,59.29000,     -11.03822
627.031,59.54667,     -11.04503
629.594,59.80333,     -11.05485
632.155,60.06000,     -11.06267
634.719,60.31667,     -11.07278
637.282,60.57333,     -11.08018
639.855,60.83000,     -11.09048
642.421,61.08667,     -11.09979
644.979,61.34333,     -11.10968
647.549,61.60000,     -11.11887
650.121,61.85667,     -11.12816
652.68,62.11333,     -11.13925
655.24,62.37000,     -11.14864
657.807,62.62667,     -11.15862
660.373,62.88333,     -11.16910
662.939,63.14000,     -11.17897
665.504,63.39667,     -11.18615
668.065,63.65333,     -11.19411
670.637,63.91000,     -11.20378
673.205,64.16667,     -11.21044
675.766,64.42333,     -11.21621
678.334,64.68000,     -11.22217
680.902,64.93667,     -11.22973
683.467,65.19333,     -11.23369
686.035,65.45000,     -11.23924
688.598,65.70667,     -11.24409
691.166,65.96333,     -11.24854
693.729,66.22000,     -11.25379
696.293,66.47667,     -11.25844
698.864,66.73333,     -11.26308
701.428,66.99000,     -11.26783
703.994,67.24667,     -11.27267
706.56,67.50333,     -11.27701
709.127,67.76000,     -11.28226
711.695,68.01667,     -11.28649
714.261,68.27333,     -11.29094
716.824,68.53000,     -11.29548
719.397,68.78667,     -11.29972
721.961,69.04333,     -11.30396
724.526,69.30000,     -11.30800
727.091,69.55667,     -11.31133
729.651,69.81333,     -11.31566
732.22,70.07000,     -11.32009
734.788,70.32667,     -11.32282
737.351,70.58333,     -11.32655
739.916,70.84000,     -11.33047
742.481,71.09667,     -11.33469
745.046,71.35333,     -11.33751
747.614,71.61000,     -11.34042
750.179,71.86667,     -11.34394
752.745,72.12333,     -11.34744
755.308,72.38000,     -11.35075
757.871,72.63667,     -11.35405
760.429,72.89333,     -11.35705
762.995,73.15000,     -11.35944
765.556,73.40667,     -11.36292
768.125,73.66333,     -11.36630
770.694,73.92000,     -11.36948
773.268,74.17667,     -11.37195
775.83,74.43333,     -11.37532
778.394,74.69000,     -11.37898
780.958,74.94667,     -11.38203
783.529,75.20333,     -11.38408
786.089,75.46000,     -11.38732
788.662,75.71667,     -11.39025
791.228,75.97333,     -11.39369
793.793,76.23000,     -11.39581
796.358,76.48667,     -11.39862
798.923,76.74333,     -11.40153
799.48,76.79833,     -11.40233