File: data-raw/TGA/L_TGA.csv
#EXPORTTYPE:                 ,DATA SINGLE
#FILE:                       ,L.ngb-st9
#FORMAT:                     ,NETZSCH5
#FTYPE:                      ,ANSI
#IDENTITY:                   ,Saras
#DECIMAL:                    ,POINT
#SEPARATOR:                  ,COMMA
#MTYPE:                      ,TG
#INSTRUMENT:                 ,NETZSCH TG 209F1 Libra
#PROJECT:                    ,IL
#DATE/TIME:                  ,9/03/2017 12:53:31 PM (UTC+11)
#CORR. FILE:                 ,
#TEMPCAL:                    ,TCALZERO.TCX
#LABORATORY:                 ,Capture Lab
#OPERATOR:                   ,NJN
#REMARK:                     ,Training run
#SAMPLE:                     ,L
#SAMPLE MASS /mg:            ,13.0009
#MATERIAL:                   ,KHCO3
#TYPE OF CRUCIBLE:           ,Al2O3
#SAMPLE CRUCIBLE MASS /mg:   ,310.8731
#REFERENCE CRUCIBLE MASS /mg:,
#M.RANGE /mg:                ,2000
#CORR. CODE:                 ,090
#RANGE:                      ,32°C/10.0(K/min)/800°C
#SEGMENT:                    ,S1/1
#SEG. 1:                     ,32°C/10.0(K/min)/800°C

##Temp./°C,Time/min,Mass loss/mg
 31.41300, 0.00000,-1.530940e-003
 32.56500, 0.25667,-5.878547e-003
 34.87500, 0.51333,-1.281144e-002
 37.87900, 0.77000,-2.386451e-002
 41.14400, 1.02667,-4.070906e-002
 44.33700, 1.28333,-6.123930e-002
 47.27900, 1.54000,-8.557241e-002
 49.96800, 1.79667,      -0.11370
 52.48700, 2.05333,      -0.14431
 54.94000, 2.31000,      -0.17677
 57.40800, 2.56667,      -0.21151
 59.92100, 2.82333,      -0.24735
 62.47800, 3.08000,      -0.28363
 65.06600, 3.33667,      -0.32135
 67.66200, 3.59333,      -0.36016
 70.25800, 3.85000,      -0.39763
 72.83900, 4.10667,      -0.43444
 75.41500, 4.36333,      -0.47015
 77.98200, 4.62000,      -0.50344
 80.55200, 4.87667,      -0.53504
 83.11800, 5.13333,      -0.56402
 85.68500, 5.39000,      -0.59161
 88.25500, 5.64667,      -0.61609
 90.82500, 5.90333,      -0.63917
 93.40500, 6.16000,      -0.66003
 95.97500, 6.41667,      -0.67897
 98.53900, 6.67333,      -0.69632
101.104, 6.93000,      -0.71194
103.668, 7.18667,      -0.72649
106.233, 7.44333,      -0.73881
108.801, 7.70000,      -0.74940
111.363, 7.95667,      -0.75955
113.925, 8.21333,      -0.76689
116.491, 8.47000,      -0.77520
119.056, 8.72667,      -0.78368
121.624, 8.98333,      -0.79014
124.188, 9.24000,      -0.79668
126.756, 9.49667,      -0.80499
129.322, 9.75333,      -0.81177
131.888,10.01000,      -0.81904
134.45,10.26667,      -0.82759
137.019,10.52333,      -0.83552
139.594,10.78000,      -0.84276
142.164,11.03667,      -0.85155
144.731,11.29333,      -0.85834
147.302,11.55000,      -0.86783
149.869,11.80667,      -0.87619
152.435,12.06333,      -0.88585
155.002,12.32000,      -0.89460
157.568,12.57667,      -0.90495
160.131,12.83333,      -0.91489
162.699,13.09000,      -0.92482
165.266,13.34667,      -0.93587
167.832,13.60333,      -0.94710
170.397,13.86000,      -0.95962
172.96,14.11667,      -0.97246
175.531,14.37333,      -0.98840
178.097,14.63000,      -1.00514
180.661,14.88667,      -1.02378
183.231,15.14333,      -1.04504
185.794,15.40000,      -1.06879
188.366,15.65667,      -1.09616
190.938,15.91333,      -1.12694
193.502,16.17000,      -1.16173
196.065,16.42667,      -1.20243
198.631,16.68333,      -1.24594
201.204,16.94000,      -1.29567
203.77,17.19667,      -1.35170
206.338,17.45333,      -1.41464
208.902,17.71000,      -1.48698
211.472,17.96667,      -1.56783
214.042,18.22333,      -1.65318
216.605,18.48000,      -1.72162
219.17,18.73667,      -1.80407
221.732,18.99333,      -1.87143
224.297,19.25000,      -1.93898
226.859,19.50667,      -2.00584
229.43,19.76333,      -2.07420
231.996,20.02000,      -2.14166
234.563,20.27667,      -2.21092
237.127,20.53333,      -2.29298
239.693,20.79000,      -2.36424
242.265,21.04667,      -2.44821
244.833,21.30333,      -2.53127
247.395,21.56000,      -2.62343
249.957,21.81667,      -2.70959
252.528,22.07333,      -2.79806
255.094,22.33000,      -2.88872
257.661,22.58667,      -2.98057
260.222,22.84333,      -3.07633
262.791,23.10000,      -3.17229
265.357,23.35667,      -3.27074
267.922,23.61333,      -3.36990
270.489,23.87000,      -3.47375
273.052,24.12667,      -3.57759
275.623,24.38333,      -3.68414
278.188,24.64000,      -3.79548
280.755,24.89667,      -3.90982
283.314,25.15333,      -4.02835
285.88,25.41000,      -4.15078
288.449,25.66667,      -4.28131
291.013,25.92333,      -4.41593
293.578,26.18000,      -4.55515
296.152,26.43667,      -4.70196
298.721,26.69333,      -4.85716
301.287,26.95000,      -5.01777
303.848,27.20667,      -5.18357
306.413,27.46333,      -5.35337
308.971,27.72000,      -5.52138
311.539,27.97667,      -5.68568
314.101,28.23333,      -5.84378
316.665,28.49000,      -5.99578
319.232,28.74667,      -6.13899
321.796,29.00333,      -6.27399
324.363,29.26000,      -6.40229
326.925,29.51667,      -6.52199
329.493,29.77333,      -6.63379
332.06,30.03000,      -6.73918
334.64,30.28667,      -6.83718
337.2,30.54333,      -6.92588
339.76,30.80000,      -6.99907
342.32,31.05667,      -7.07116
344.888,31.31333,      -7.13845
347.458,31.57000,      -7.20133
350.022,31.82667,      -7.25862
352.586,32.08333,      -7.31290
355.155,32.34000,      -7.36298
357.715,32.59667,      -7.41116
360.282,32.85333,      -7.45623
362.845,33.11000,      -7.50070
365.417,33.36667,      -7.54317
367.985,33.62333,      -7.58423
370.547,33.88000,      -7.62469
373.109,34.13667,      -7.66515
375.675,34.39333,      -7.70420
378.239,34.65000,      -7.74265
380.805,34.90667,      -7.78149
383.369,35.16333,      -7.81983
385.932,35.42000,      -7.85757
388.497,35.67667,      -7.89520
391.061,35.93333,      -7.93233
393.623,36.19000,      -7.96945
396.189,36.44667,      -8.00506
398.76,36.70333,      -8.04137
401.321,36.96000,      -8.07678
403.882,37.21667,      -8.11158
406.452,37.47333,      -8.14668
409.011,37.73000,      -8.18198
411.583,37.98667,      -8.21646
414.148,38.24333,      -8.24996
416.711,38.50000,      -8.28434
419.278,38.75667,      -8.31833
421.841,39.01333,      -8.35101
424.403,39.27000,      -8.38339
426.971,39.52667,      -8.41616
429.528,39.78333,      -8.44703
432.097,40.04000,      -8.47860
434.66,40.29667,      -8.50916
437.232,40.55333,      -8.53892
439.803,40.81000,      -8.56818
442.362,41.06667,      -8.59724
444.922,41.32333,      -8.62429
447.491,41.58000,      -8.65134
450.058,41.83667,      -8.67719
452.62,42.09333,      -8.70174
455.181,42.35000,      -8.72647
457.753,42.60667,      -8.74951
460.315,42.86333,      -8.77175
462.876,43.12000,      -8.79358
465.443,43.37667,      -8.81481
468.007,43.63333,      -8.83393
470.562,43.89000,      -8.85386
473.133,44.14667,      -8.87277
475.7,44.40333,      -8.89139
478.26,44.66000,      -8.90851
480.82,44.91667,      -8.92582
483.392,45.17333,      -8.94122
485.95,45.43000,      -8.95553
488.518,45.68667,      -8.97043
491.086,45.94333,      -8.98373
493.648,46.20000,      -8.99573
496.21,46.45667,      -9.00752
498.777,46.71333,      -9.01871
501.344,46.97000,      -9.02869
503.905,47.22667,      -9.03828
506.47,47.48333,      -9.04887
509.033,47.74000,      -9.05725
511.592,47.99667,      -9.06713
514.163,48.25333,      -9.07480
516.723,48.51000,      -9.08408
519.284,48.76667,      -9.09105
521.857,49.02333,      -9.09972
524.42,49.28000,      -9.10579
526.981,49.53667,      -9.11526
529.551,49.79333,      -9.12092
532.113,50.05000,      -9.12888
534.677,50.30667,      -9.13664
537.242,50.56333,      -9.14190
539.806,50.82000,      -9.15025
542.368,51.07667,      -9.15680
544.935,51.33333,      -9.16264
547.495,51.59000,      -9.16889
550.059,51.84667,      -9.17483
552.626,52.10333,      -9.18076
555.19,52.36000,      -9.18670
557.755,52.61667,      -9.19193
560.328,52.87333,      -9.19775
562.894,53.13000,      -9.20338
565.456,53.38667,      -9.20920
568.019,53.64333,      -9.21522
570.586,53.90000,      -9.22093
573.147,54.15667,      -9.22684
575.71,54.41333,      -9.23284
578.285,54.67000,      -9.23844
580.849,54.92667,      -9.24464
583.422,55.18333,      -9.25003
585.984,55.44000,      -9.25601
588.553,55.69667,      -9.26270
591.106,55.95333,      -9.26829
593.676,56.21000,      -9.27455
596.251,56.46667,      -9.28052
598.813,56.72333,      -9.28739
601.383,56.98000,      -9.29485
603.954,57.23667,      -9.30060
606.519,57.49333,      -9.30856
609.093,57.75000,      -9.31440
611.661,58.00667,      -9.32065
614.229,58.26333,      -9.32879
616.794,58.52000,      -9.33462
619.368,58.77667,      -9.34245
621.938,59.03333,      -9.34808
624.501,59.29000,      -9.35471
627.066,59.54667,      -9.36102
629.646,59.80333,      -9.36673
632.206,60.06000,      -9.37225
634.768,60.31667,      -9.37706
637.327,60.57333,      -9.38167
639.89,60.83000,      -9.38678
642.446,61.08667,      -9.39138
645.013,61.34333,      -9.39567
647.578,61.60000,      -9.39987
650.141,61.85667,      -9.40425
652.716,62.11333,      -9.40904
655.279,62.37000,      -9.41242
657.843,62.62667,      -9.41661
660.404,62.88333,      -9.42039
662.972,63.14000,      -9.42456
665.54,63.39667,      -9.42853
668.104,63.65333,      -9.43270
670.673,63.91000,      -9.43667
673.237,64.16667,      -9.44064
675.801,64.42333,      -9.44450
678.36,64.68000,      -9.44787
680.918,64.93667,      -9.45153
683.493,65.19333,      -9.45577
686.053,65.45000,      -9.46004
688.624,65.70667,      -9.46348
691.191,65.96333,      -9.46713
693.767,66.22000,      -9.47137
696.333,66.47667,      -9.47473
698.892,66.73333,      -9.47777
701.458,66.99000,      -9.48192
704.024,67.24667,      -9.48566
706.597,67.50333,      -9.48910
709.159,67.76000,      -9.49225
711.728,68.01667,      -9.49559
714.292,68.27333,      -9.49863
716.853,68.53000,      -9.50297
719.421,68.78667,      -9.50641
721.988,69.04333,      -9.51045
724.548,69.30000,      -9.51369
727.12,69.55667,      -9.51752
729.678,69.81333,      -9.52066
732.247,70.07000,      -9.52349
734.813,70.32667,      -9.52781
737.375,70.58333,      -9.53144
739.943,70.84000,      -9.53556
742.507,71.09667,      -9.53889
745.073,71.35333,      -9.54211
747.637,71.61000,      -9.54592
750.204,71.86667,      -9.54893
752.77,72.12333,      -9.55274
755.333,72.38000,      -9.55684
757.899,72.63667,      -9.56054
760.461,72.89333,      -9.56444
763.034,73.15000,      -9.56752
765.602,73.40667,      -9.57131
768.167,73.66333,      -9.57479
770.732,73.92000,      -9.57917
773.297,74.17667,      -9.58304
775.864,74.43333,      -9.58700
778.428,74.69000,      -9.59056
780.992,74.94667,      -9.59432
783.555,75.20333,      -9.59837
786.123,75.46000,      -9.60201
788.69,75.71667,      -9.60664
791.259,75.97333,      -9.60957
793.829,76.23000,      -9.61349
796.406,76.48667,      -9.61800
798.97,76.74333,      -9.62152
799.401,76.78667,      -9.62177