File: data-raw/TGA/M_TGA.csv
#EXPORTTYPE:                 ,DATA SINGLE
#FILE:                       ,M.ngb-st9
#FORMAT:                     ,NETZSCH5
#FTYPE:                      ,ANSI
#IDENTITY:                   ,Saras
#DECIMAL:                    ,POINT
#SEPARATOR:                  ,COMMA
#MTYPE:                      ,TG
#INSTRUMENT:                 ,NETZSCH TG 209F1 Libra
#PROJECT:                    ,IL
#DATE/TIME:                  ,20/03/2017 4:03:47 PM (UTC+11)
#CORR. FILE:                 ,
#TEMPCAL:                    ,TCALZERO.TCX
#LABORATORY:                 ,Capture Lab
#OPERATOR:                   ,NJN
#REMARK:                     ,Training run
#SAMPLE:                     ,M
#SAMPLE MASS /mg:            ,18.9745
#MATERIAL:                   ,zeolite
#TYPE OF CRUCIBLE:           ,Al2O3
#SAMPLE CRUCIBLE MASS /mg:   ,312.0043
#REFERENCE CRUCIBLE MASS /mg:,
#M.RANGE /mg:                ,2000
#CORR. CODE:                 ,090
#RANGE:                      ,32°C/10.0(K/min)/800°C
#SEGMENT:                    ,S1/1
#SEG. 1:                     ,32°C/10.0(K/min)/800°C

##Temp./°C,Time/min,Mass loss/mg
 32.22500, 0.00000,-1.909441e-003
 33.23300, 0.25667,-1.302215e-002
 35.24200, 0.51333,-2.963144e-002
 37.92600, 0.77000,-4.769039e-002
 40.98800, 1.02667,-7.255708e-002
 44.11100, 1.28333,      -0.10337
 47.08800, 1.54000,      -0.13921
 49.85400, 1.79667,      -0.18161
 52.44300, 2.05333,      -0.22925
 54.94100, 2.31000,      -0.28173
 57.41800, 2.56667,      -0.33794
 59.92700, 2.82333,      -0.39912
 62.46600, 3.08000,      -0.47280
 65.03600, 3.33667,      -0.54660
 67.62500, 3.59333,      -0.61413
 70.21400, 3.85000,      -0.68431
 72.81000, 4.10667,      -0.75666
 75.39000, 4.36333,      -0.83385
 77.97100, 4.62000,      -0.90066
 80.54400, 4.87667,      -0.96845
 83.11200, 5.13333,      -1.03391
 85.68700, 5.39000,      -1.08912
 88.26300, 5.64667,      -1.14510
 90.83600, 5.90333,      -1.19806
 93.40600, 6.16000,      -1.24661
 95.97800, 6.41667,      -1.28977
 98.54300, 6.67333,      -1.33122
101.11, 6.93000,      -1.36804
103.676, 7.18667,      -1.40268
106.243, 7.44333,      -1.43272
108.805, 7.70000,      -1.46121
111.365, 7.95667,      -1.48566
113.926, 8.21333,      -1.50768
116.492, 8.47000,      -1.52961
119.057, 8.72667,      -1.54838
121.62, 8.98333,      -1.56574
124.187, 9.24000,      -1.58136
126.746, 9.49667,      -1.59936
129.307, 9.75333,      -1.61566
131.865,10.01000,      -1.63343
134.439,10.26667,      -1.65201
137.004,10.52333,      -1.67153
139.575,10.78000,      -1.69265
142.142,11.03667,      -1.71625
144.707,11.29333,      -1.74144
147.273,11.55000,      -1.77152
149.83,11.80667,      -1.80348
152.399,12.06333,      -1.83916
154.978,12.32000,      -1.87552
157.565,12.57667,      -1.91278
160.146,12.83333,      -1.94651
162.728,13.09000,      -1.97714
165.293,13.34667,      -2.00655
167.852,13.60333,      -2.03678
170.409,13.86000,      -2.06711
172.963,14.11667,      -2.09815
175.521,14.37333,      -2.12709
178.085,14.63000,      -2.15684
180.653,14.88667,      -2.18809
183.219,15.14333,      -2.21884
185.785,15.40000,      -2.25049
188.354,15.65667,      -2.28246
190.925,15.91333,      -2.31474
193.49,16.17000,      -2.35053
196.059,16.42667,      -2.38493
198.627,16.68333,      -2.42124
201.195,16.94000,      -2.45837
203.757,17.19667,      -2.49960
206.324,17.45333,      -2.54054
208.893,17.71000,      -2.58678
211.459,17.96667,      -2.63693
214.02,18.22333,      -2.69087
216.593,18.48000,      -2.75843
219.156,18.73667,      -2.82577
221.734,18.99333,      -2.90853
224.295,19.25000,      -2.99338
226.859,19.50667,      -3.08314
229.428,19.76333,      -3.17770
231.996,20.02000,      -3.27936
234.561,20.27667,      -3.38322
237.126,20.53333,      -3.49188
239.688,20.79000,      -3.60534
242.256,21.04667,      -3.72001
244.823,21.30333,      -3.84187
247.397,21.56000,      -3.96523
249.951,21.81667,      -4.09269
252.519,22.07333,      -4.21995
255.08,22.33000,      -4.34831
257.64,22.58667,      -4.47498
260.205,22.84333,      -4.59743
262.768,23.10000,      -4.71879
265.335,23.35667,      -4.83435
267.9,23.61333,      -4.94860
270.469,23.87000,      -5.05955
273.039,24.12667,      -5.17259
275.605,24.38333,      -5.28224
278.169,24.64000,      -5.39058
280.736,24.89667,      -5.49972
283.328,25.15333,      -5.61165
285.877,25.41000,      -5.72198
288.437,25.66667,      -5.83601
290.999,25.92333,      -5.95313
293.564,26.18000,      -6.07465
296.128,26.43667,      -6.19776
298.699,26.69333,      -6.32997
301.268,26.95000,      -6.46857
303.838,27.20667,      -6.61237
306.402,27.46333,      -6.76547
308.964,27.72000,      -6.93258
311.537,27.97667,      -7.10378
314.102,28.23333,      -7.28348
316.662,28.49000,      -7.46499
319.233,28.74667,      -7.64238
321.785,29.00333,      -7.80029
324.339,29.26000,      -7.93589
326.901,29.51667,      -8.05429
329.465,29.77333,      -8.15619
332.038,30.03000,      -8.23749
334.613,30.28667,      -8.31638
337.177,30.54333,      -8.39478
339.735,30.80000,      -8.46007
342.31,31.05667,      -8.52076
344.88,31.31333,      -8.58055
347.439,31.57000,      -8.64784
350.007,31.82667,      -8.71232
352.572,32.08333,      -8.75820
355.14,32.34000,      -8.81238
357.704,32.59667,      -8.87696
360.265,32.85333,      -8.92413
362.836,33.11000,      -8.97670
365.395,33.36667,      -9.02927
367.962,33.62333,      -9.08043
370.532,33.88000,      -9.12859
373.087,34.13667,      -9.18446
375.658,34.39333,      -9.23340
378.221,34.65000,      -9.28225
380.784,34.90667,      -9.33230
383.353,35.16333,      -9.38003
385.919,35.42000,      -9.42827
388.477,35.67667,      -9.47811
391.043,35.93333,      -9.52473
393.609,36.19000,      -9.57165
396.174,36.44667,      -9.61627
398.732,36.70333,      -9.66508
401.3,36.96000,      -9.71088
403.87,37.21667,      -9.75398
406.433,37.47333,      -9.80018
408.999,37.73000,      -9.84448
411.564,37.98667,      -9.88767
414.138,38.24333,      -9.93076
416.7,38.50000,      -9.97635
419.26,38.75667,     -10.02113
421.831,39.01333,     -10.06151
424.397,39.27000,     -10.10249
426.957,39.52667,     -10.14516
429.52,39.78333,     -10.18983
432.084,40.04000,     -10.23230
434.648,40.29667,     -10.27707
437.211,40.55333,     -10.32403
439.782,40.81000,     -10.36608
442.35,41.06667,     -10.40844
444.907,41.32333,     -10.45820
447.472,41.58000,     -10.50254
450.038,41.83667,     -10.54739
452.6,42.09333,     -10.59344
455.162,42.35000,     -10.64028
457.729,42.60667,     -10.68752
460.29,42.86333,     -10.73595
462.858,43.12000,     -10.78308
465.424,43.37667,     -10.82761
467.985,43.63333,     -10.87104
470.553,43.89000,     -10.91106
473.114,44.14667,     -10.94788
475.678,44.40333,     -10.98370
478.24,44.66000,     -11.01621
480.806,44.91667,     -11.04452
483.376,45.17333,     -11.07113
485.937,45.43000,     -11.09624
488.503,45.68667,     -11.12074
491.064,45.94333,     -11.14564
493.63,46.20000,     -11.16693
496.2,46.45667,     -11.18752
498.763,46.71333,     -11.20651
501.325,46.97000,     -11.22900
503.887,47.22667,     -11.25049
506.45,47.48333,     -11.26947
509.019,47.74000,     -11.28645
511.581,47.99667,     -11.30543
514.144,48.25333,     -11.32291
516.708,48.51000,     -11.34008
519.271,48.76667,     -11.35786
521.828,49.02333,     -11.37433
524.394,49.28000,     -11.39170
526.963,49.53667,     -11.40446
529.523,49.79333,     -11.42033
532.086,50.05000,     -11.44169
534.661,50.30667,     -11.44904
537.221,50.56333,     -11.46570
539.793,50.82000,     -11.47955
542.353,51.07667,     -11.49420
544.92,51.33333,     -11.50894
547.479,51.59000,     -11.52139
550.045,51.84667,     -11.53423
552.613,52.10333,     -11.54627
555.176,52.36000,     -11.55990
557.748,52.61667,     -11.57273
560.32,52.87333,     -11.58505
562.874,53.13000,     -11.59959
565.439,53.38667,     -11.61330
568.007,53.64333,     -11.62592
570.578,53.90000,     -11.63913
573.15,54.15667,     -11.65213
575.711,54.41333,     -11.66454
578.279,54.67000,     -11.67714
580.842,54.92667,     -11.69094
583.404,55.18333,     -11.70813
585.976,55.44000,     -11.71931
588.537,55.69667,     -11.73700
591.102,55.95333,     -11.74948
593.672,56.21000,     -11.76696
596.236,56.46667,     -11.78183
598.813,56.72333,     -11.79389
601.373,56.98000,     -11.81286
603.939,57.23667,     -11.82881
606.511,57.49333,     -11.84416
609.078,57.75000,     -11.86061
611.638,58.00667,     -11.88016
614.21,58.26333,     -11.89659
616.766,58.52000,     -11.91703
619.336,58.77667,     -11.93476
621.906,59.03333,     -11.95269
624.464,59.29000,     -11.97511
627.035,59.54667,     -11.99413
629.596,59.80333,     -12.01515
632.163,60.06000,     -12.03776
634.729,60.31667,     -12.05888
637.294,60.57333,     -12.08118
639.862,60.83000,     -12.10618
642.431,61.08667,     -12.12828
644.996,61.34333,     -12.15207
647.555,61.60000,     -12.17317
650.115,61.85667,     -12.19846
652.682,62.11333,     -12.21945
655.244,62.37000,     -12.24313
657.812,62.62667,     -12.26641
660.384,62.88333,     -12.28529
662.948,63.14000,     -12.30477
665.514,63.39667,     -12.32184
668.084,63.65333,     -12.33311
670.652,63.91000,     -12.34068
673.211,64.16667,     -12.35195
675.782,64.42333,     -12.35940
678.339,64.68000,     -12.36907
680.908,64.93667,     -12.37482
683.473,65.19333,     -12.38058
686.041,65.45000,     -12.38963
688.61,65.70667,     -12.39899
691.175,65.96333,     -12.40644
693.741,66.22000,     -12.41239
696.304,66.47667,     -12.42044
698.873,66.73333,     -12.42748
701.44,66.99000,     -12.43572
704.006,67.24667,     -12.44087
706.571,67.50333,     -12.44561
709.134,67.76000,     -12.45505
711.697,68.01667,     -12.46130
714.267,68.27333,     -12.46564
716.83,68.53000,     -12.47778
719.397,68.78667,     -12.47832
721.959,69.04333,     -12.48506
724.515,69.30000,     -12.49760
727.088,69.55667,     -12.49953
729.656,69.81333,     -12.50406
732.223,70.07000,     -12.50879
734.789,70.32667,     -12.51592
737.36,70.58333,     -12.52025
739.915,70.84000,     -12.53127
742.484,71.09667,     -12.53399
745.05,71.35333,     -12.53971
747.615,71.61000,     -12.54382
750.177,71.86667,     -12.54964
752.748,72.12333,     -12.55384
755.316,72.38000,     -12.56145
757.883,72.63667,     -12.56894
760.447,72.89333,     -12.57244
763.008,73.15000,     -12.57523
765.575,73.40667,     -12.57932
768.139,73.66333,     -12.58710
770.702,73.92000,     -12.59168
773.273,74.17667,     -12.59735
775.836,74.43333,     -12.60121
778.403,74.69000,     -12.60627
780.976,74.94667,     -12.61132
783.545,75.20333,     -12.61547
786.105,75.46000,     -12.62012
788.673,75.71667,     -12.62595
791.239,75.97333,     -12.62888
793.803,76.23000,     -12.63650
796.367,76.48667,     -12.63952
798.943,76.74333,     -12.64342
799.5,76.79833,     -12.64443