File: data-raw/TGA/MM_TGA.csv
#EXPORTTYPE:                 ,DATA SINGLE
#FILE:                       ,MM.ngb-st9
#FORMAT:                     ,NETZSCH5
#FTYPE:                      ,ANSI
#IDENTITY:                   ,Saras
#DECIMAL:                    ,POINT
#SEPARATOR:                  ,COMMA
#MTYPE:                      ,TG
#INSTRUMENT:                 ,NETZSCH TG 209F1 Libra
#PROJECT:                    ,IL
#DATE/TIME:                  ,21/03/2017 10:11:39 AM (UTC+11)
#CORR. FILE:                 ,
#TEMPCAL:                    ,TCALZERO.TCX
#LABORATORY:                 ,Capture Lab
#OPERATOR:                   ,NJN
#REMARK:                     ,Training run
#SAMPLE:                     ,MM
#SAMPLE MASS /mg:            ,11.2769
#MATERIAL:                   ,zeolite
#TYPE OF CRUCIBLE:           ,Al2O3
#SAMPLE CRUCIBLE MASS /mg:   ,311.1645
#REFERENCE CRUCIBLE MASS /mg:,
#M.RANGE /mg:                ,2000
#CORR. CODE:                 ,090
#RANGE:                      ,32°C/10.0(K/min)/800°C
#SEGMENT:                    ,S1/1
#SEG. 1:                     ,32°C/10.0(K/min)/800°C

##Temp./°C,Time/min,Mass loss/mg
 31.76700, 0.00000,-2.278087e-003
 32.87500, 0.25667, 9.951599e-004
 35.08000, 0.51333, 2.677985e-003
 37.95200, 0.77000, 1.808463e-003
 41.12400, 1.02667, 1.261896e-003
 44.27500, 1.28333,-8.895029e-004
 47.21600, 1.54000,-5.165871e-003
 49.92200, 1.79667,-9.869375e-003
 52.46500, 2.05333,-1.597734e-002
 54.93900, 2.31000,-2.324610e-002
 57.41100, 2.56667,-3.293893e-002
 59.92200, 2.82333,-4.267042e-002
 62.47000, 3.08000,-5.250821e-002
 65.05100, 3.33667,-6.492282e-002
 67.63400, 3.59333,-7.753861e-002
 70.22200, 3.85000,-9.179422e-002
 72.80300, 4.10667,      -0.10693
 75.38300, 4.36333,      -0.12224
 77.95200, 4.62000,      -0.13724
 80.51300, 4.87667,      -0.15222
 83.07700, 5.13333,      -0.16740
 85.64800, 5.39000,      -0.18191
 88.22400, 5.64667,      -0.19571
 90.79800, 5.90333,      -0.20926
 93.37600, 6.16000,      -0.22164
 95.94600, 6.41667,      -0.23318
 98.51600, 6.67333,      -0.24404
101.089, 6.93000,      -0.25405
103.655, 7.18667,      -0.26159
106.217, 7.44333,      -0.26881
108.781, 7.70000,      -0.27529
111.348, 7.95667,      -0.28206
113.907, 8.21333,      -0.28759
116.472, 8.47000,      -0.29360
119.04, 8.72667,      -0.29968
121.606, 8.98333,      -0.30505
124.175, 9.24000,      -0.31037
126.74, 9.49667,      -0.31539
129.309, 9.75333,      -0.32048
131.877,10.01000,      -0.32534
134.443,10.26667,      -0.32960
137.012,10.52333,      -0.33403
139.579,10.78000,      -0.33905
142.146,11.03667,      -0.34345
144.718,11.29333,      -0.34855
147.282,11.55000,      -0.35412
149.851,11.80667,      -0.35980
152.422,12.06333,      -0.36606
154.987,12.32000,      -0.37280
157.552,12.57667,      -0.37995
160.119,12.83333,      -0.38789
162.683,13.09000,      -0.39643
165.245,13.34667,      -0.40606
167.815,13.60333,      -0.41580
170.383,13.86000,      -0.42594
172.946,14.11667,      -0.43677
175.512,14.37333,      -0.44930
178.083,14.63000,      -0.46225
180.647,14.88667,      -0.47709
183.214,15.14333,      -0.49314
185.785,15.40000,      -0.51090
188.356,15.65667,      -0.53057
190.922,15.91333,      -0.55224
193.487,16.17000,      -0.57673
196.05,16.42667,      -0.60293
198.619,16.68333,      -0.63195
201.183,16.94000,      -0.66317
203.754,17.19667,      -0.69761
206.321,17.45333,      -0.73384
208.889,17.71000,      -0.77319
211.455,17.96667,      -0.81483
214.02,18.22333,      -0.85868
216.589,18.48000,      -0.90403
219.16,18.73667,      -0.95208
221.719,18.99333,      -1.00233
224.287,19.25000,      -1.05328
226.853,19.50667,      -1.10544
229.423,19.76333,      -1.16010
231.987,20.02000,      -1.21666
234.552,20.27667,      -1.27542
237.118,20.53333,      -1.33798
239.686,20.79000,      -1.41165
242.254,21.04667,      -1.48061
244.814,21.30333,      -1.56337
247.38,21.56000,      -1.63513
249.945,21.81667,      -1.72630
252.51,22.07333,      -1.81056
255.073,22.33000,      -1.89882
257.642,22.58667,      -1.99108
260.208,22.84333,      -2.08624
262.77,23.10000,      -2.18529
265.338,23.35667,      -2.28935
267.903,23.61333,      -2.39420
270.469,23.87000,      -2.50325
273.033,24.12667,      -2.61569
275.6,24.38333,      -2.73284
278.166,24.64000,      -2.85158
280.738,24.89667,      -2.97302
283.323,25.15333,      -3.09675
285.868,25.41000,      -3.22368
288.431,25.66667,      -3.35151
290.996,25.92333,      -3.48033
293.56,26.18000,      -3.60965
296.128,26.43667,      -3.74276
298.691,26.69333,      -3.87587
301.259,26.95000,      -4.01067
303.822,27.20667,      -4.15037
306.391,27.46333,      -4.29197
308.955,27.72000,      -4.43618
311.526,27.97667,      -4.58248
314.088,28.23333,      -4.73208
316.656,28.49000,      -4.87469
319.233,28.74667,      -5.01148
321.786,29.00333,      -5.13959
324.347,29.26000,      -5.25449
326.908,29.51667,      -5.35659
329.472,29.77333,      -5.44789
332.042,30.03000,      -5.51839
334.617,30.28667,      -5.58758
337.175,30.54333,      -5.65198
339.733,30.80000,      -5.70897
342.299,31.05667,      -5.76266
344.865,31.31333,      -5.81215
347.431,31.57000,      -5.85834
349.999,31.82667,      -5.90232
352.565,32.08333,      -5.94320
355.13,32.34000,      -5.98208
357.696,32.59667,      -6.01936
360.264,32.85333,      -6.05443
362.825,33.11000,      -6.09010
365.394,33.36667,      -6.12357
367.96,33.62333,      -6.15573
370.523,33.88000,      -6.18780
373.089,34.13667,      -6.21935
375.652,34.39333,      -6.24941
378.215,34.65000,      -6.27966
380.78,34.90667,      -6.30940
383.346,35.16333,      -6.33754
385.907,35.42000,      -6.36667
388.489,35.67667,      -6.39530
391.054,35.93333,      -6.42273
393.606,36.19000,      -6.44985
396.172,36.44667,      -6.47767
398.737,36.70333,      -6.50428
401.297,36.96000,      -6.52988
403.863,37.21667,      -6.55548
406.432,37.47333,      -6.58108
408.997,37.73000,      -6.60618
411.563,37.98667,      -6.63117
414.127,38.24333,      -6.65496
416.69,38.50000,      -6.67955
419.251,38.75667,      -6.70293
421.822,39.01333,      -6.72601
424.385,39.27000,      -6.74909
426.946,39.52667,      -6.77106
429.511,39.78333,      -6.79413
432.073,40.04000,      -6.81620
434.643,40.29667,      -6.83737
437.208,40.55333,      -6.85853
439.769,40.81000,      -6.87939
442.335,41.06667,      -6.90004
444.897,41.32333,      -6.92030
447.466,41.58000,      -6.93975
450.029,41.83667,      -6.95969
452.591,42.09333,      -6.97884
455.158,42.35000,      -6.99828
457.72,42.60667,      -7.01692
460.288,42.86333,      -7.03535
462.849,43.12000,      -7.05359
465.411,43.37667,      -7.07091
467.983,43.63333,      -7.08834
470.549,43.89000,      -7.10556
473.112,44.14667,      -7.12118
475.677,44.40333,      -7.13650
478.242,44.66000,      -7.15121
480.8,44.91667,      -7.16552
483.367,45.17333,      -7.17863
485.936,45.43000,      -7.19113
488.503,45.68667,      -7.20364
491.065,45.94333,      -7.21474
493.626,46.20000,      -7.22723
496.196,46.45667,      -7.23822
498.754,46.71333,      -7.24951
501.324,46.97000,      -7.26000
503.885,47.22667,      -7.27019
506.452,47.48333,      -7.28037
509.012,47.74000,      -7.29145
511.574,47.99667,      -7.29963
514.141,48.25333,      -7.30991
516.706,48.51000,      -7.31788
519.273,48.76667,      -7.32855
521.834,49.02333,      -7.33773
524.399,49.28000,      -7.34669
526.965,49.53667,      -7.35546
529.538,49.79333,      -7.36512
532.102,50.05000,      -7.37208
534.663,50.30667,      -7.38164
537.232,50.56333,      -7.38959
539.8,50.82000,      -7.39715
542.361,51.07667,      -7.40590
544.929,51.33333,      -7.41314
547.496,51.59000,      -7.42099
550.057,51.84667,      -7.42883
552.625,52.10333,      -7.43576
555.192,52.36000,      -7.44410
557.767,52.61667,      -7.45032
560.334,52.87333,      -7.45895
562.903,53.13000,      -7.46557
565.465,53.38667,      -7.47250
568.034,53.64333,      -7.48101
570.597,53.90000,      -7.48713
573.173,54.15667,      -7.49632
575.738,54.41333,      -7.50144
578.299,54.67000,      -7.50834
580.862,54.92667,      -7.51443
583.425,55.18333,      -7.52273
585.99,55.44000,      -7.52931
588.554,55.69667,      -7.53620
591.131,55.95333,      -7.54427
593.689,56.21000,      -7.55015
596.26,56.46667,      -7.55752
598.825,56.72333,      -7.56489
601.391,56.98000,      -7.57355
603.959,57.23667,      -7.58010
606.524,57.49333,      -7.58856
609.089,57.75000,      -7.59681
611.658,58.00667,      -7.60275
614.219,58.26333,      -7.61219
616.78,58.52000,      -7.61953
619.349,58.77667,      -7.62676
621.919,59.03333,      -7.63398
624.483,59.29000,      -7.64261
627.045,59.54667,      -7.64983
629.611,59.80333,      -7.65895
632.179,60.06000,      -7.66446
634.742,60.31667,      -7.67177
637.298,60.57333,      -7.67898
639.865,60.83000,      -7.68568
642.43,61.08667,      -7.69168
644.998,61.34333,      -7.69647
647.563,61.60000,      -7.70167
650.128,61.85667,      -7.70656
652.688,62.11333,      -7.71065
655.255,62.37000,      -7.71563
657.82,62.62667,      -7.72031
660.391,62.88333,      -7.72449
662.951,63.14000,      -7.72807
665.521,63.39667,      -7.73234
668.088,63.65333,      -7.73660
670.655,63.91000,      -7.74068
673.22,64.16667,      -7.74554
675.787,64.42333,      -7.74971
678.349,64.68000,      -7.75307
680.917,64.93667,      -7.75642
683.477,65.19333,      -7.76018
686.051,65.45000,      -7.76433
688.616,65.70667,      -7.76808
691.184,65.96333,      -7.77243
693.752,66.22000,      -7.77638
696.319,66.47667,      -7.77993
698.885,66.73333,      -7.78437
701.45,66.99000,      -7.78822
704.011,67.24667,      -7.79207
706.578,67.50333,      -7.79521
709.147,67.76000,      -7.79745
711.707,68.01667,      -7.80389
714.28,68.27333,      -7.80633
716.845,68.53000,      -7.80958
719.411,68.78667,      -7.81251
721.967,69.04333,      -7.81666
724.535,69.30000,      -7.81999
727.102,69.55667,      -7.82373
729.663,69.81333,      -7.82726
732.23,70.07000,      -7.83069
734.793,70.32667,      -7.83482
737.362,70.58333,      -7.83754
739.931,70.84000,      -7.84117
742.493,71.09667,      -7.84539
745.064,71.35333,      -7.84881
747.627,71.61000,      -7.85202
750.197,71.86667,      -7.85503
752.765,72.12333,      -7.85954
755.326,72.38000,      -7.86214
757.898,72.63667,      -7.86564
760.461,72.89333,      -7.86914
763.024,73.15000,      -7.87203
765.59,73.40667,      -7.87551
768.151,73.66333,      -7.87990
770.718,73.92000,      -7.88257
773.285,74.17667,      -7.88554
775.851,74.43333,      -7.88891
778.419,74.69000,      -7.89157
780.982,74.94667,      -7.89532
783.556,75.20333,      -7.89917
786.113,75.46000,      -7.90222
788.686,75.71667,      -7.90624
791.253,75.97333,      -7.90988
793.815,76.23000,      -7.91320
796.384,76.48667,      -7.91631
798.949,76.74333,      -7.91992
799.504,76.79833,      -7.92073