File: data-raw/TGA/NN_TGA.csv
#EXPORTTYPE:                 ,DATA SINGLE
#FILE:                       ,NN.ngb-st9
#FORMAT:                     ,NETZSCH5
#FTYPE:                      ,ANSI
#IDENTITY:                   ,Saras
#DECIMAL:                    ,POINT
#SEPARATOR:                  ,COMMA
#MTYPE:                      ,TG
#INSTRUMENT:                 ,NETZSCH TG 209F1 Libra
#PROJECT:                    ,IL
#DATE/TIME:                  ,21/03/2017 2:49:23 PM (UTC+11)
#CORR. FILE:                 ,
#TEMPCAL:                    ,TCALZERO.TCX
#LABORATORY:                 ,Capture Lab
#OPERATOR:                   ,NJN
#REMARK:                     ,Training run
#SAMPLE:                     ,NN
#SAMPLE MASS /mg:            ,17.6340
#MATERIAL:                   ,zeolite
#TYPE OF CRUCIBLE:           ,Al2O3
#SAMPLE CRUCIBLE MASS /mg:   ,311.1824
#REFERENCE CRUCIBLE MASS /mg:,
#M.RANGE /mg:                ,2000
#CORR. CODE:                 ,090
#RANGE:                      ,32°C/10.0(K/min)/800°C
#SEGMENT:                    ,S1/1
#SEG. 1:                     ,32°C/10.0(K/min)/800°C

##Temp./°C,Time/min,Mass loss/mg
 32.37200, 0.00000,-2.510991e-003
 33.35900, 0.25667,-7.005984e-003
 35.32000, 0.51333,-1.520480e-002
 37.95000, 0.77000,-2.854267e-002
 40.98200, 1.02667,-4.621592e-002
 44.09400, 1.28333,-6.661871e-002
 47.07100, 1.54000,-9.250959e-002
 49.84200, 1.79667,      -0.12305
 52.44000, 2.05333,      -0.15729
 54.94200, 2.31000,      -0.19624
 57.42700, 2.56667,      -0.23838
 59.92900, 2.82333,      -0.28371
 62.46700, 3.08000,      -0.33189
 65.03800, 3.33667,      -0.38250
 67.62900, 3.59333,      -0.43626
 70.21800, 3.85000,      -0.49071
 72.80100, 4.10667,      -0.54474
 75.38000, 4.36333,      -0.60035
 77.96300, 4.62000,      -0.65335
 80.53800, 4.87667,      -0.70425
 83.11200, 5.13333,      -0.75224
 85.68500, 5.39000,      -0.79833
 88.25200, 5.64667,      -0.83949
 90.82700, 5.90333,      -0.87716
 93.40300, 6.16000,      -0.91324
 95.97400, 6.41667,      -0.94518
 98.54000, 6.67333,      -0.97314
101.102, 6.93000,      -0.99862
103.667, 7.18667,      -1.02189
106.238, 7.44333,      -1.04192
108.797, 7.70000,      -1.05840
111.362, 7.95667,      -1.07426
113.92, 8.21333,      -1.08808
116.485, 8.47000,      -1.10020
119.046, 8.72667,      -1.11077
121.61, 8.98333,      -1.12123
124.169, 9.24000,      -1.13176
126.739, 9.49667,      -1.14239
129.306, 9.75333,      -1.15258
131.868,10.01000,      -1.16354
134.438,10.26667,      -1.17560
137.004,10.52333,      -1.18763
139.575,10.78000,      -1.20065
142.144,11.03667,      -1.21295
144.711,11.29333,      -1.22845
147.28,11.55000,      -1.24273
149.848,11.80667,      -1.25889
152.422,12.06333,      -1.27377
154.998,12.32000,      -1.28692
157.576,12.57667,      -1.29856
160.14,12.83333,      -1.30889
162.7,13.09000,      -1.31833
165.263,13.34667,      -1.32966
167.822,13.60333,      -1.34099
170.376,13.86000,      -1.35272
172.945,14.11667,      -1.36487
175.511,14.37333,      -1.37821
178.084,14.63000,      -1.39235
180.653,14.88667,      -1.40679
183.217,15.14333,      -1.42184
185.787,15.40000,      -1.43730
188.354,15.65667,      -1.45296
190.92,15.91333,      -1.46964
193.486,16.17000,      -1.48713
196.052,16.42667,      -1.50613
198.62,16.68333,      -1.52674
201.185,16.94000,      -1.54747
203.75,17.19667,      -1.57051
206.322,17.45333,      -1.59595
208.885,17.71000,      -1.62368
211.452,17.96667,      -1.65403
214.018,18.22333,      -1.68848
216.585,18.48000,      -1.72603
219.156,18.73667,      -1.76828
221.721,18.99333,      -1.81523
224.289,19.25000,      -1.86889
226.852,19.50667,      -1.92644
229.422,19.76333,      -1.99000
231.983,20.02000,      -2.06426
234.553,20.27667,      -2.14872
237.118,20.53333,      -2.23118
239.68,20.79000,      -2.32534
242.251,21.04667,      -2.42201
244.813,21.30333,      -2.52397
247.381,21.56000,      -2.63203
249.951,21.81667,      -2.74630
252.517,22.07333,      -2.86686
255.081,22.33000,      -2.99132
257.648,22.58667,      -3.12058
260.21,22.84333,      -3.25393
262.779,23.10000,      -3.38979
265.345,23.35667,      -3.52764
267.914,23.61333,      -3.66840
270.472,23.87000,      -3.81265
273.039,24.12667,      -3.95659
275.606,24.38333,      -4.10064
278.167,24.64000,      -4.24908
280.733,24.89667,      -4.39452
283.333,25.15333,      -4.54265
285.875,25.41000,      -4.68998
288.43,25.66667,      -4.84161
290.994,25.92333,      -4.99203
293.558,26.18000,      -5.14615
296.123,26.43667,      -5.30466
298.69,26.69333,      -5.46647
301.259,26.95000,      -5.63467
303.826,27.20667,      -5.81037
306.394,27.46333,      -5.99807
308.96,27.72000,      -6.19528
311.524,27.97667,      -6.40648
314.097,28.23333,      -6.63228
316.661,28.49000,      -6.87828
319.231,28.74667,      -7.13508
321.801,29.00333,      -7.40329
324.359,29.26000,      -7.67939
326.92,29.51667,      -7.94739
329.486,29.77333,      -8.20649
332.049,30.03000,      -8.45219
334.616,30.28667,      -8.68588
337.178,30.54333,      -8.89948
339.742,30.80000,      -9.09307
342.31,31.05667,      -9.26396
344.873,31.31333,      -9.41525
347.438,31.57000,      -9.54144
350.003,31.82667,      -9.64892
352.571,32.08333,      -9.74080
355.134,32.34000,      -9.81718
357.698,32.59667,      -9.88356
360.267,32.85333,      -9.94203
362.831,33.11000,     -10.00250
365.391,33.36667,     -10.06047
367.963,33.62333,     -10.11623
370.531,33.88000,     -10.17069
373.093,34.13667,     -10.22485
375.664,34.39333,     -10.27730
378.22,34.65000,     -10.33016
380.785,34.90667,     -10.38340
383.351,35.16333,     -10.43654
385.915,35.42000,     -10.48817
388.478,35.67667,     -10.53980
391.043,35.93333,     -10.59313
393.601,36.19000,     -10.64445
396.172,36.44667,     -10.69587
398.735,36.70333,     -10.74788
401.308,36.96000,     -10.79738
403.864,37.21667,     -10.84719
406.435,37.47333,     -10.89708
409,37.73000,     -10.94528
411.569,37.98667,     -10.99337
414.131,38.24333,     -11.04036
416.692,38.50000,     -11.08755
419.26,38.75667,     -11.13343
421.822,39.01333,     -11.17881
424.389,39.27000,     -11.22329
426.953,39.52667,     -11.26916
429.515,39.78333,     -11.31333
432.083,40.04000,     -11.35740
434.645,40.29667,     -11.40247
437.214,40.55333,     -11.44543
439.775,40.81000,     -11.48809
442.34,41.06667,     -11.53065
444.904,41.32333,     -11.57340
447.465,41.58000,     -11.61535
450.031,41.83667,     -11.65629
452.598,42.09333,     -11.69694
455.166,42.35000,     -11.73528
457.728,42.60667,     -11.77282
460.292,42.86333,     -11.80985
462.858,43.12000,     -11.84808
465.42,43.37667,     -11.88421
467.987,43.63333,     -11.92054
470.554,43.89000,     -11.95576
473.117,44.14667,     -11.99098
475.678,44.40333,     -12.02680
478.237,44.66000,     -12.06102
480.806,44.91667,     -12.09312
483.374,45.17333,     -12.12303
485.934,45.43000,     -12.14974
488.499,45.68667,     -12.17373
491.067,45.94333,     -12.19603
493.633,46.20000,     -12.21563
496.196,46.45667,     -12.23422
498.76,46.71333,     -12.25181
501.323,46.97000,     -12.26980
503.888,47.22667,     -12.28608
506.448,47.48333,     -12.30207
509.015,47.74000,     -12.31695
511.583,47.99667,     -12.33173
514.139,48.25333,     -12.34661
516.705,48.51000,     -12.36048
519.273,48.76667,     -12.37455
521.835,49.02333,     -12.38753
524.397,49.28000,     -12.40080
526.964,49.53667,     -12.41396
529.535,49.79333,     -12.42672
532.095,50.05000,     -12.43869
534.66,50.30667,     -12.45064
537.224,50.56333,     -12.46210
539.785,50.82000,     -12.47305
542.354,51.07667,     -12.48520
544.92,51.33333,     -12.49625
547.477,51.59000,     -12.50750
550.038,51.84667,     -12.51833
552.606,52.10333,     -12.52827
555.167,52.36000,     -12.53870
557.737,52.61667,     -12.54873
560.307,52.87333,     -12.55815
562.872,53.13000,     -12.56868
565.44,53.38667,     -12.57900
568.009,53.64333,     -12.58862
570.57,53.90000,     -12.59743
573.135,54.15667,     -12.60724
575.707,54.41333,     -12.61604
578.275,54.67000,     -12.62524
580.828,54.92667,     -12.63514
583.401,55.18333,     -12.64453
585.956,55.44000,     -12.65293
588.528,55.69667,     -12.66170
591.098,55.95333,     -12.67088
593.662,56.21000,     -12.68086
596.225,56.46667,     -12.68973
598.788,56.72333,     -12.69820
601.358,56.98000,     -12.70815
603.93,57.23667,     -12.71741
606.493,57.49333,     -12.72656
609.055,57.75000,     -12.73672
611.616,58.00667,     -12.74576
614.187,58.26333,     -12.75660
616.756,58.52000,     -12.76723
619.318,58.77667,     -12.77607
621.883,59.03333,     -12.78730
624.452,59.29000,     -12.79852
627.015,59.54667,     -12.80924
629.577,59.80333,     -12.82106
632.146,60.06000,     -12.83267
634.706,60.31667,     -12.84488
637.274,60.57333,     -12.85748
639.837,60.83000,     -12.87149
642.4,61.08667,     -12.88389
644.972,61.34333,     -12.89838
647.531,61.60000,     -12.91398
650.104,61.85667,     -12.92846
652.664,62.11333,     -12.94376
655.23,62.37000,     -12.96024
657.797,62.62667,     -12.97732
660.355,62.88333,     -12.99410
662.927,63.14000,     -13.01157
665.494,63.39667,     -13.02935
668.061,63.65333,     -13.04671
670.635,63.91000,     -13.06478
673.195,64.16667,     -13.08105
675.763,64.42333,     -13.09721
678.328,64.68000,     -13.11277
680.894,64.93667,     -13.12583
683.463,65.19333,     -13.13578
686.029,65.45000,     -13.14354
688.597,65.70667,     -13.14959
691.163,65.96333,     -13.15484
693.725,66.22000,     -13.16029
696.296,66.47667,     -13.16554
698.859,66.73333,     -13.17068
701.42,66.99000,     -13.17533
703.987,67.24667,     -13.18227
706.553,67.50333,     -13.18771
709.123,67.76000,     -13.19215
711.685,68.01667,     -13.19690
714.251,68.27333,     -13.20074
716.823,68.53000,     -13.20518
719.379,68.78667,     -13.21043
721.943,69.04333,     -13.21546
724.517,69.30000,     -13.21939
727.079,69.55667,     -13.22383
729.644,69.81333,     -13.22886
732.217,70.07000,     -13.23269
734.781,70.32667,     -13.23702
737.345,70.58333,     -13.24155
739.912,70.84000,     -13.24547
742.474,71.09667,     -13.24950
745.046,71.35333,     -13.25331
747.609,71.61000,     -13.25663
750.171,71.86667,     -13.26144
752.74,72.12333,     -13.26484
755.308,72.38000,     -13.26815
757.873,72.63667,     -13.27195
760.439,72.89333,     -13.27464
762.996,73.15000,     -13.27834
765.564,73.40667,     -13.28212
768.138,73.66333,     -13.28520
770.694,73.92000,     -13.28918
773.264,74.17667,     -13.29335
775.829,74.43333,     -13.29632
778.399,74.69000,     -13.29917
780.964,74.94667,     -13.30163
783.53,75.20333,     -13.30548
786.1,75.46000,     -13.30872
788.669,75.71667,     -13.31185
791.237,75.97333,     -13.31408
793.798,76.23000,     -13.31681
796.373,76.48667,     -13.31991
798.94,76.74333,     -13.32283
799.486,76.79833,     -13.32334