File: data-raw/TGA/R_TGA.csv
#EXPORTTYPE:                 ,DATA SINGLE
#FILE:                       ,R.ngb-st9
#FORMAT:                     ,NETZSCH5
#FTYPE:                      ,ANSI
#IDENTITY:                   ,Saras
#DECIMAL:                    ,POINT
#SEPARATOR:                  ,COMMA
#MTYPE:                      ,TG
#INSTRUMENT:                 ,NETZSCH TG 209F1 Libra
#PROJECT:                    ,IL
#DATE/TIME:                  ,22/03/2017 9:43:44 AM (UTC+11)
#CORR. FILE:                 ,
#TEMPCAL:                    ,TCALZERO.TCX
#LABORATORY:                 ,Capture Lab
#OPERATOR:                   ,NJN
#REMARK:                     ,Training run
#SAMPLE:                     ,R
#SAMPLE MASS /mg:            ,18.8541
#MATERIAL:                   ,zeolite
#TYPE OF CRUCIBLE:           ,Al2O3
#SAMPLE CRUCIBLE MASS /mg:   ,311.2628
#REFERENCE CRUCIBLE MASS /mg:,
#M.RANGE /mg:                ,2000
#CORR. CODE:                 ,090
#RANGE:                      ,32°C/10.0(K/min)/800°C
#SEGMENT:                    ,S1/1
#SEG. 1:                     ,32°C/10.0(K/min)/800°C

##Temp./°C,Time/min,Mass loss/mg
 31.52600, 0.00000,-2.518503e-003
 32.66100, 0.25667,-5.573925e-003
 34.92100, 0.51333,-1.397681e-002
 37.86200, 0.77000,-2.890146e-002
 41.09100, 1.02667,-4.925282e-002
 44.26900, 1.28333,-7.298711e-002
 47.22000, 1.54000,      -0.10252
 49.93600, 1.79667,      -0.13583
 52.47400, 2.05333,      -0.17236
 54.94300, 2.31000,      -0.21361
 57.40900, 2.56667,      -0.25792
 59.90900, 2.82333,      -0.30381
 62.46000, 3.08000,      -0.35340
 65.04200, 3.33667,      -0.40423
 67.63800, 3.59333,      -0.45608
 70.23400, 3.85000,      -0.50844
 72.82200, 4.10667,      -0.56155
 75.40400, 4.36333,      -0.61365
 77.97700, 4.62000,      -0.66395
 80.54900, 4.87667,      -0.71243
 83.11800, 5.13333,      -0.75833
 85.68400, 5.39000,      -0.80040
 88.25300, 5.64667,      -0.84048
 90.82500, 5.90333,      -0.87727
 93.39500, 6.16000,      -0.91231
 95.96500, 6.41667,      -0.94287
 98.53700, 6.67333,      -0.97094
101.104, 6.93000,      -0.99714
103.67, 7.18667,      -1.02039
106.237, 7.44333,      -1.04051
108.8, 7.70000,      -1.05980
111.356, 7.95667,      -1.07715
113.919, 8.21333,      -1.09120
116.489, 8.47000,      -1.10552
119.059, 8.72667,      -1.11838
121.618, 8.98333,      -1.13123
124.183, 9.24000,      -1.14287
126.747, 9.49667,      -1.15597
129.31, 9.75333,      -1.16836
131.876,10.01000,      -1.18195
134.444,10.26667,      -1.19599
137.011,10.52333,      -1.21123
139.584,10.78000,      -1.22785
142.15,11.03667,      -1.24545
144.719,11.29333,      -1.26454
147.289,11.55000,      -1.28383
149.85,11.80667,      -1.30598
152.419,12.06333,      -1.32786
154.987,12.32000,      -1.35071
157.562,12.57667,      -1.37466
160.134,12.83333,      -1.39919
162.699,13.09000,      -1.42473
165.257,13.34667,      -1.45406
167.825,13.60333,      -1.48320
170.385,13.86000,      -1.51463
172.95,14.11667,      -1.54826
175.521,14.37333,      -1.58450
178.093,14.63000,      -1.62225
180.652,14.88667,      -1.66128
183.221,15.14333,      -1.70404
185.79,15.40000,      -1.74970
188.36,15.65667,      -1.79687
190.931,15.91333,      -1.84484
193.501,16.17000,      -1.89843
196.063,16.42667,      -1.95293
198.621,16.68333,      -2.01234
201.197,16.94000,      -2.07308
203.765,17.19667,      -2.13391
206.332,17.45333,      -2.20834
208.893,17.71000,      -2.27838
211.458,17.96667,      -2.36522
214.025,18.22333,      -2.43908
216.591,18.48000,      -2.53002
219.16,18.73667,      -2.61998
221.723,18.99333,      -2.71133
224.286,19.25000,      -2.80538
226.852,19.50667,      -2.90014
229.419,19.76333,      -2.99830
231.983,20.02000,      -3.09686
234.549,20.27667,      -3.19402
237.118,20.53333,      -3.29288
239.691,20.79000,      -3.39405
242.25,21.04667,      -3.49641
244.816,21.30333,      -3.59797
247.384,21.56000,      -3.70293
249.957,21.81667,      -3.80870
252.519,22.07333,      -3.91866
255.079,22.33000,      -4.02872
257.652,22.58667,      -4.13968
260.213,22.84333,      -4.25463
262.783,23.10000,      -4.36829
265.347,23.35667,      -4.48374
267.912,23.61333,      -4.60090
270.478,23.87000,      -4.71905
273.036,24.12667,      -4.83779
275.607,24.38333,      -4.95824
278.174,24.64000,      -5.07838
280.74,24.89667,      -5.20192
283.328,25.15333,      -5.32715
285.874,25.41000,      -5.45058
288.431,25.66667,      -5.57741
290.999,25.92333,      -5.70583
293.564,26.18000,      -5.83825
296.126,26.43667,      -5.97046
298.691,26.69333,      -6.10457
301.255,26.95000,      -6.24197
303.83,27.20667,      -6.38457
306.399,27.46333,      -6.52977
308.966,27.72000,      -6.68008
311.529,27.97667,      -6.83758
314.098,28.23333,      -7.00598
316.666,28.49000,      -7.18318
319.241,28.74667,      -7.37028
321.796,29.00333,      -7.57089
324.361,29.26000,      -7.77219
326.923,29.51667,      -7.97629
329.481,29.77333,      -8.17049
332.048,30.03000,      -8.35278
334.609,30.28667,      -8.51608
337.179,30.54333,      -8.65967
339.744,30.80000,      -8.79197
342.309,31.05667,      -8.90956
344.878,31.31333,      -9.01615
347.437,31.57000,      -9.11934
350,31.82667,      -9.21892
352.569,32.08333,      -9.31420
355.143,32.34000,      -9.40528
357.71,32.59667,      -9.50006
360.274,32.85333,      -9.59223
362.84,33.11000,      -9.68360
365.4,33.36667,      -9.77417
367.964,33.62333,      -9.86593
370.53,33.88000,      -9.95699
373.093,34.13667,     -10.05225
375.656,34.39333,     -10.14540
378.229,34.65000,     -10.23945
380.79,34.90667,     -10.33470
383.355,35.16333,     -10.43264
385.921,35.42000,     -10.53047
388.484,35.67667,     -10.63090
391.048,35.93333,     -10.73263
393.609,36.19000,     -10.83475
396.181,36.44667,     -10.93766
398.747,36.70333,     -11.03928
401.303,36.96000,     -11.14119
403.873,37.21667,     -11.24258
406.445,37.47333,     -11.34288
409.003,37.73000,     -11.44028
411.569,37.98667,     -11.53487
414.127,38.24333,     -11.62946
416.697,38.50000,     -11.71574
419.257,38.75667,     -11.80133
421.823,39.01333,     -11.88411
424.39,39.27000,     -11.95699
426.958,39.52667,     -12.02886
429.519,39.78333,     -12.10993
432.084,40.04000,     -12.18040
434.655,40.29667,     -12.25506
437.216,40.55333,     -12.32923
439.777,40.81000,     -12.39269
442.335,41.06667,     -12.45895
444.912,41.32333,     -12.51539
447.486,41.58000,     -12.56944
450.039,41.83667,     -12.62960
452.604,42.09333,     -12.68584
455.171,42.35000,     -12.73598
457.735,42.60667,     -12.78272
460.301,42.86333,     -12.82895
462.863,43.12000,     -12.87758
465.422,43.37667,     -12.92051
467.994,43.63333,     -12.95564
470.553,43.89000,     -12.99926
473.125,44.14667,     -13.03478
475.687,44.40333,     -13.07090
478.252,44.66000,     -13.10281
480.81,44.91667,     -13.13582
483.375,45.17333,     -13.16523
485.944,45.43000,     -13.19533
488.514,45.68667,     -13.22273
491.072,45.94333,     -13.24834
493.637,46.20000,     -13.27273
496.2,46.45667,     -13.29362
498.761,46.71333,     -13.31681
501.328,46.97000,     -13.33740
503.887,47.22667,     -13.35879
506.447,47.48333,     -13.37637
509.016,47.74000,     -13.39175
511.579,47.99667,     -13.40863
514.148,48.25333,     -13.42360
516.715,48.51000,     -13.43798
519.276,48.76667,     -13.45215
521.838,49.02333,     -13.46502
524.407,49.28000,     -13.47859
526.968,49.53667,     -13.49186
529.537,49.79333,     -13.50412
532.104,50.05000,     -13.51598
534.666,50.30667,     -13.52804
537.229,50.56333,     -13.53970
539.808,50.82000,     -13.55134
542.377,51.07667,     -13.56109
544.943,51.33333,     -13.57114
547.506,51.59000,     -13.58268
550.068,51.84667,     -13.59423
552.642,52.10333,     -13.60536
555.213,52.36000,     -13.61559
557.786,52.61667,     -13.62282
560.35,52.87333,     -13.63185
562.915,53.13000,     -13.64507
565.494,53.38667,     -13.65228
568.055,53.64333,     -13.66271
570.621,53.90000,     -13.67182
573.193,54.15667,     -13.68192
575.756,54.41333,     -13.69113
578.313,54.67000,     -13.70114
580.88,54.92667,     -13.71073
583.451,55.18333,     -13.71582
586.007,55.44000,     -13.72651
588.574,55.69667,     -13.73339
591.135,55.95333,     -13.74148
593.697,56.21000,     -13.75305
596.264,56.46667,     -13.75952
598.829,56.72333,     -13.76829
601.391,56.98000,     -13.77415
603.961,57.23667,     -13.78180
606.525,57.49333,     -13.79346
609.098,57.75000,     -13.79830
611.663,58.00667,     -13.80515
614.217,58.26333,     -13.81870
616.786,58.52000,     -13.82822
619.353,58.77667,     -13.83016
621.914,59.03333,     -13.84399
624.479,59.29000,     -13.85201
627.045,59.54667,     -13.85693
629.603,59.80333,     -13.87035
632.165,60.06000,     -13.87976
634.738,60.31667,     -13.89157
637.306,60.57333,     -13.89828
639.869,60.83000,     -13.91208
642.43,61.08667,     -13.92388
644.995,61.34333,     -13.93418
647.562,61.60000,     -13.94637
650.13,61.85667,     -13.95816
652.686,62.11333,     -13.97155
655.256,62.37000,     -13.98283
657.825,62.62667,     -13.99521
660.384,62.88333,     -14.00949
662.953,63.14000,     -14.02107
665.51,63.39667,     -14.03754
668.068,63.65333,     -14.05502
670.642,63.91000,     -14.06328
673.215,64.16667,     -14.07014
675.78,64.42333,     -14.08741
678.349,64.68000,     -14.09986
680.915,64.93667,     -14.10362
683.476,65.19333,     -14.11488
686.043,65.45000,     -14.12604
688.607,65.70667,     -14.13509
691.171,65.96333,     -14.14604
693.743,66.22000,     -14.15038
696.32,66.47667,     -14.15253
698.878,66.73333,     -14.16128
701.443,66.99000,     -14.16802
704.01,67.24667,     -14.17366
706.578,67.50333,     -14.18351
709.14,67.76000,     -14.18835
711.716,68.01667,     -14.19139
714.274,68.27333,     -14.19464
716.838,68.53000,     -14.20308
719.402,68.78667,     -14.20932
721.961,69.04333,     -14.21376
724.525,69.30000,     -14.21919
727.091,69.55667,     -14.22473
729.66,69.81333,     -14.23306
732.229,70.07000,     -14.23519
734.792,70.32667,     -14.23872
737.36,70.58333,     -14.24375
739.931,70.84000,     -14.25037
742.496,71.09667,     -14.25409
745.06,71.35333,     -14.25681
747.617,71.61000,     -14.27053
750.186,71.86667,     -14.27103
752.752,72.12333,     -14.27674
755.329,72.38000,     -14.27844
757.89,72.63667,     -14.28234
760.457,72.89333,     -14.28784
763.017,73.15000,     -14.29333
765.584,73.40667,     -14.29802
768.154,73.66333,     -14.30089
770.714,73.92000,     -14.30847
773.28,74.17667,     -14.31264
775.849,74.43333,     -14.31471
778.415,74.69000,     -14.31947
780.984,74.94667,     -14.32742
783.548,75.20333,     -14.32957
786.114,75.46000,     -14.32971
788.677,75.71667,     -14.33955
791.25,75.97333,     -14.34248
793.813,76.23000,     -14.34880
796.387,76.48667,     -14.35031
798.953,76.74333,     -14.35912
799.391,76.78667,     -14.35987