File: data-raw/TGA/S_TGA.csv
#EXPORTTYPE:                 ,DATA SINGLE
#FILE:                       ,S.ngb-st9
#FORMAT:                     ,NETZSCH5
#FTYPE:                      ,ANSI
#IDENTITY:                   ,Saras
#DECIMAL:                    ,POINT
#SEPARATOR:                  ,COMMA
#MTYPE:                      ,TG
#INSTRUMENT:                 ,NETZSCH TG 209F1 Libra
#PROJECT:                    ,IL
#DATE/TIME:                  ,22/03/2017 11:34:47 AM (UTC+11)
#CORR. FILE:                 ,
#TEMPCAL:                    ,TCALZERO.TCX
#LABORATORY:                 ,Capture Lab
#OPERATOR:                   ,NJN
#REMARK:                     ,Training run
#SAMPLE:                     ,S
#SAMPLE MASS /mg:            ,14.3454
#MATERIAL:                   ,zeolite
#TYPE OF CRUCIBLE:           ,Al2O3
#SAMPLE CRUCIBLE MASS /mg:   ,312.0404
#REFERENCE CRUCIBLE MASS /mg:,
#M.RANGE /mg:                ,2000
#CORR. CODE:                 ,090
#RANGE:                      ,32°C/10.0(K/min)/800°C
#SEGMENT:                    ,S1/1
#SEG. 1:                     ,32°C/10.0(K/min)/800°C

##Temp./°C,Time/min,Mass loss/mg
 31.95200, 0.00000,-1.662557e-003
 33.01300, 0.25667,-4.333418e-003
 35.13600, 0.51333,-8.539956e-003
 37.93700, 0.77000,-1.589071e-002
 41.07200, 1.02667,-2.476027e-002
 44.21500, 1.28333,-3.855295e-002
 47.17000, 1.54000,-5.802431e-002
 49.89300, 1.79667,-7.633581e-002
 52.46300, 2.05333,-9.687161e-002
 54.94500, 2.31000,      -0.11869
 57.42300, 2.56667,      -0.14105
 59.93000, 2.82333,      -0.17103
 62.47900, 3.08000,      -0.19642
 65.05700, 3.33667,      -0.22313
 67.64600, 3.59333,      -0.25223
 70.23700, 3.85000,      -0.28172
 72.81500, 4.10667,      -0.30933
 75.39200, 4.36333,      -0.33574
 77.96400, 4.62000,      -0.36176
 80.53200, 4.87667,      -0.38634
 83.10500, 5.13333,      -0.40875
 85.67500, 5.39000,      -0.42792
 88.24700, 5.64667,      -0.44639
 90.81400, 5.90333,      -0.46286
 93.38000, 6.16000,      -0.47821
 95.95700, 6.41667,      -0.48989
 98.52400, 6.67333,      -0.50134
101.089, 6.93000,      -0.51203
103.654, 7.18667,      -0.52008
106.222, 7.44333,      -0.52692
108.789, 7.70000,      -0.53320
111.35, 7.95667,      -0.53955
113.914, 8.21333,      -0.54480
116.475, 8.47000,      -0.54920
119.037, 8.72667,      -0.55477
121.604, 8.98333,      -0.55875
124.169, 9.24000,      -0.56297
126.741, 9.49667,      -0.56459
129.311, 9.75333,      -0.56767
131.875,10.01000,      -0.57314
134.439,10.26667,      -0.57628
137.01,10.52333,      -0.57952
139.578,10.78000,      -0.58465
142.149,11.03667,      -0.58946
144.715,11.29333,      -0.59354
147.284,11.55000,      -0.59862
149.847,11.80667,      -0.60539
152.418,12.06333,      -0.61446
154.987,12.32000,      -0.61931
157.553,12.57667,      -0.62825
160.121,12.83333,      -0.63469
162.684,13.09000,      -0.64583
165.257,13.34667,      -0.65437
167.818,13.60333,      -0.66699
170.383,13.86000,      -0.67503
172.944,14.11667,      -0.68826
175.512,14.37333,      -0.69650
178.08,14.63000,      -0.70984
180.65,14.88667,      -0.72229
183.221,15.14333,      -0.73563
185.786,15.40000,      -0.75280
188.354,15.65667,      -0.76756
190.921,15.91333,      -0.78664
193.488,16.17000,      -0.80613
196.057,16.42667,      -0.82953
198.624,16.68333,      -0.85325
201.189,16.94000,      -0.88257
203.757,17.19667,      -0.90921
206.321,17.45333,      -0.94164
208.888,17.71000,      -0.97679
211.457,17.96667,      -1.00953
214.019,18.22333,      -1.04717
216.584,18.48000,      -1.08542
219.155,18.73667,      -1.12688
221.725,18.99333,      -1.16803
224.292,19.25000,      -1.21298
226.853,19.50667,      -1.26424
229.421,19.76333,      -1.31770
231.985,20.02000,      -1.37866
234.554,20.27667,      -1.45222
237.116,20.53333,      -1.52958
239.684,20.79000,      -1.61955
242.252,21.04667,      -1.71381
244.818,21.30333,      -1.81797
247.382,21.56000,      -1.93253
249.952,21.81667,      -2.05300
252.513,22.07333,      -2.19036
255.081,22.33000,      -2.32882
257.644,22.58667,      -2.47337
260.208,22.84333,      -2.62093
262.772,23.10000,      -2.76989
265.333,23.35667,      -2.91944
267.901,23.61333,      -3.06510
270.469,23.87000,      -3.21015
273.032,24.12667,      -3.35229
275.598,24.38333,      -3.49114
278.161,24.64000,      -3.63208
280.742,24.89667,      -3.76352
283.318,25.15333,      -3.89755
285.861,25.41000,      -4.03098
288.425,25.66667,      -4.16531
290.992,25.92333,      -4.30303
293.556,26.18000,      -4.44345
296.132,26.43667,      -4.58936
298.696,26.69333,      -4.74537
301.264,26.95000,      -4.90477
303.829,27.20667,      -5.08357
306.389,27.46333,      -5.27428
308.962,27.72000,      -5.47868
311.525,27.97667,      -5.70388
314.094,28.23333,      -5.95418
316.664,28.49000,      -6.22038
319.233,28.74667,      -6.50399
321.811,29.00333,      -6.79889
324.364,29.26000,      -7.09059
326.926,29.51667,      -7.35739
329.49,29.77333,      -7.58979
332.053,30.03000,      -7.78448
334.615,30.28667,      -7.94378
337.177,30.54333,      -8.07348
339.737,30.80000,      -8.17917
342.305,31.05667,      -8.26696
344.869,31.31333,      -8.33975
347.435,31.57000,      -8.40774
350.004,31.82667,      -8.46162
352.569,32.08333,      -8.52200
355.137,32.34000,      -8.57388
357.699,32.59667,      -8.62496
360.263,32.85333,      -8.67263
362.829,33.11000,      -8.71870
365.396,33.36667,      -8.76397
367.958,33.62333,      -8.80934
370.52,33.88000,      -8.85450
373.086,34.13667,      -8.89585
375.663,34.39333,      -8.93360
378.222,34.65000,      -8.97595
380.785,34.90667,      -9.01730
383.346,35.16333,      -9.05444
385.911,35.42000,      -9.09287
388.477,35.67667,      -9.13040
391.048,35.93333,      -9.16563
393.611,36.19000,      -9.20215
396.175,36.44667,      -9.23917
398.74,36.70333,      -9.27418
401.299,36.96000,      -9.31059
403.864,37.21667,      -9.34609
406.43,37.47333,      -9.37908
408.996,37.73000,      -9.41288
411.571,37.98667,      -9.44647
414.128,38.24333,      -9.48056
416.694,38.50000,      -9.51305
419.257,38.75667,      -9.54743
421.837,39.01333,      -9.57560
424.388,39.27000,      -9.60839
426.948,39.52667,      -9.63966
429.518,39.78333,      -9.66773
432.08,40.04000,      -9.69800
434.65,40.29667,      -9.72436
437.211,40.55333,      -9.75453
439.776,40.81000,      -9.78119
442.339,41.06667,      -9.80704
444.9,41.32333,      -9.83470
447.473,41.58000,      -9.85644
450.032,41.83667,      -9.88380
452.6,42.09333,      -9.90534
455.169,42.35000,      -9.92638
457.731,42.60667,      -9.95012
460.298,42.86333,      -9.96845
462.857,43.12000,      -9.99089
465.426,43.37667,     -10.00911
467.99,43.63333,     -10.02964
470.553,43.89000,     -10.04746
473.119,44.14667,     -10.06408
475.679,44.40333,     -10.08160
478.245,44.66000,     -10.09681
480.815,44.91667,     -10.10982
483.371,45.17333,     -10.12933
485.938,45.43000,     -10.14233
488.503,45.68667,     -10.15584
491.069,45.94333,     -10.17063
493.634,46.20000,     -10.18373
496.196,46.45667,     -10.19752
498.762,46.71333,     -10.20981
501.326,46.97000,     -10.22060
503.892,47.22667,     -10.23268
506.457,47.48333,     -10.24377
509.01,47.74000,     -10.25816
511.583,47.99667,     -10.26662
514.144,48.25333,     -10.27711
516.717,48.51000,     -10.28498
519.276,48.76667,     -10.29766
521.834,49.02333,     -10.30813
524.396,49.28000,     -10.31860
526.962,49.53667,     -10.32736
529.526,49.79333,     -10.33722
532.095,50.05000,     -10.34528
534.663,50.30667,     -10.35314
537.227,50.56333,     -10.36120
539.792,50.82000,     -10.36825
542.356,51.07667,     -10.37800
544.921,51.33333,     -10.38625
547.474,51.59000,     -10.39250
550.039,51.84667,     -10.40203
552.608,52.10333,     -10.40737
555.173,52.36000,     -10.41420
557.74,52.61667,     -10.42533
560.299,52.87333,     -10.43106
562.868,53.13000,     -10.43628
565.44,53.38667,     -10.44250
568.005,53.64333,     -10.44852
570.569,53.90000,     -10.45823
573.14,54.15667,     -10.46443
575.706,54.41333,     -10.46954
578.266,54.67000,     -10.47665
580.836,54.92667,     -10.48394
583.406,55.18333,     -10.48873
585.967,55.44000,     -10.49342
588.538,55.69667,     -10.49900
591.106,55.95333,     -10.50858
593.665,56.21000,     -10.51386
596.238,56.46667,     -10.51672
598.805,56.72333,     -10.52719
601.373,56.98000,     -10.53065
603.949,57.23667,     -10.53450
606.515,57.49333,     -10.53926
609.089,57.75000,     -10.54520
611.648,58.00667,     -10.54995
614.209,58.26333,     -10.55879
616.781,58.52000,     -10.56222
619.347,58.77667,     -10.56586
621.911,59.03333,     -10.57239
624.481,59.29000,     -10.57561
627.045,59.54667,     -10.58073
629.608,59.80333,     -10.58625
632.171,60.06000,     -10.59196
634.743,60.31667,     -10.59926
637.306,60.57333,     -10.59998
639.865,60.83000,     -10.60778
642.436,61.08667,     -10.61188
645.002,61.34333,     -10.61167
647.562,61.60000,     -10.61817
650.119,61.85667,     -10.62726
652.688,62.11333,     -10.63075
655.257,62.37000,     -10.63223
657.818,62.62667,     -10.63632
660.385,62.88333,     -10.64229
662.947,63.14000,     -10.64747
665.515,63.39667,     -10.64894
668.076,63.65333,     -10.65661
670.65,63.91000,     -10.65927
673.213,64.16667,     -10.65994
675.771,64.42333,     -10.66741
678.34,64.68000,     -10.67177
680.908,64.93667,     -10.67303
683.472,65.19333,     -10.67598
686.032,65.45000,     -10.68074
688.601,65.70667,     -10.68399
691.169,65.96333,     -10.68974
693.74,66.22000,     -10.69199
696.306,66.47667,     -10.69643
698.872,66.73333,     -10.69978
701.438,66.99000,     -10.70322
704.004,67.24667,     -10.70747
706.569,67.50333,     -10.70981
709.136,67.76000,     -10.71275
711.7,68.01667,     -10.71720
714.265,68.27333,     -10.72304
716.834,68.53000,     -10.72648
719.396,68.78667,     -10.72842
721.966,69.04333,     -10.73075
724.533,69.30000,     -10.73359
727.103,69.55667,     -10.73783
729.667,69.81333,     -10.74336
732.229,70.07000,     -10.74519
734.801,70.32667,     -10.74652
737.364,70.58333,     -10.75155
739.927,70.84000,     -10.75507
742.494,71.09667,     -10.75779
745.056,71.35333,     -10.76221
747.62,71.61000,     -10.76612
750.191,71.86667,     -10.76713
752.752,72.12333,     -10.77014
755.321,72.38000,     -10.77584
757.879,72.63667,     -10.77885
760.454,72.89333,     -10.78314
763.014,73.15000,     -10.78573
765.585,73.40667,     -10.78661
768.148,73.66333,     -10.78970
770.707,73.92000,     -10.79398
773.277,74.17667,     -10.79755
775.84,74.43333,     -10.80071
778.414,74.69000,     -10.80347
780.982,74.94667,     -10.80652
783.547,75.20333,     -10.80907
786.108,75.46000,     -10.81362
788.682,75.71667,     -10.81575
791.244,75.97333,     -10.81948
793.81,76.23000,     -10.82160
796.385,76.48667,     -10.82341
798.952,76.74333,     -10.82642
799.505,76.79833,     -10.82733